Data from USB4F035431__15__14-25-55-547.txt Node

Date: Wed Feb 12 14:25:55 CET 2025
User: Versuch 234
Spectrometer: USB4F03543
Trigger mode: 4
Integration Time (sec): 1,000000E-1
Scans to average: 1
Electric dark correction enabled: true
Nonlinearity correction enabled: false
Boxcar width: 0
XAxis mode: Wavelengths
Number of Pixels in Spectrum: 3648
>>>>>Begin Spectral Data<<<<<
179,969	-110,08
180,181	-110,08
180,394	-110,08
180,606	-218,62
180,819	-232,96
181,031	37,38
181,243	92,67
181,456	-32,26
181,668	23,04
181,88	45,57
182,093	-36,35
182,305	-101,89
182,518	-24,06
182,73	14,85
182,942	-3,58
183,155	-73,21
183,367	57,86
183,579	78,33
183,791	-1,54
184,004	2,56
184,216	-19,97
184,428	10,75
184,641	35,33
184,853	-79,36
185,065	-91,65
185,277	23,04
185,49	82,43
185,702	37,38
185,914	-19,97
186,126	51,71
186,338	27,14
186,551	25,09
186,763	12,8
186,975	8,7
187,187	0,51
187,399	-11,78
187,612	23,04
187,824	12,8
188,036	41,47
188,248	-1,54
188,46	74,24
188,672	59,9
188,885	-11,78
189,097	84,48
189,309	-19,97
189,521	-7,68
189,733	20,99
189,945	16,9
190,157	4,61
190,369	-58,88
190,581	18,94
190,794	-17,92
191,006	-95,74
191,218	-7,68
191,43	76,29
191,642	-79,36
191,854	-11,78
192,066	72,19
192,278	-19,97
192,49	-105,98
192,702	-56,83
192,914	45,57
193,126	-15,87
193,338	-28,16
193,55	90,62
193,762	12,8
193,974	-40,45
194,186	-48,64
194,398	20,99
194,61	-24,06
194,822	43,52
195,034	68,09
195,246	43,52
195,457	25,09
195,669	86,53
195,881	57,86
196,093	-30,21
196,305	55,81
196,517	-40,45
196,729	35,33
196,941	-19,97
197,153	53,76
197,365	82,43
197,576	-34,3
197,788	-73,21
198	45,57
198,212	35,33
198,424	100,86
198,636	-38,4
198,847	-36,35
199,059	6,66
199,271	-3,58
199,483	61,95
199,695	-13,82
199,906	53,76
200,118	-52,74
200,33	49,66
200,542	324,09
200,753	-15,87
200,965	-44,54
201,177	8,7
201,389	18,94
201,6	49,66
201,812	-22,02
202,024	-24,06
202,235	-60,93
202,447	76,29
202,659	39,42
202,871	27,14
203,082	12,8
203,294	20,99
203,506	-46,59
203,717	18,94
203,929	61,95
204,141	-48,64
204,352	64
204,564	-44,54
204,775	-56,83
204,987	94,72
205,199	-13,82
205,41	45,57
205,622	12,8
205,833	-11,78
206,045	61,95
206,257	-30,21
206,468	-54,78
206,68	0,51
206,891	-3,58
207,103	-3,58
207,314	-48,64
207,526	20,99
207,737	-30,21
207,949	59,9
208,16	35,33
208,372	66,05
208,583	-22,02
208,795	-7,68
209,006	-19,97
209,218	-19,97
209,429	-97,79
209,641	-17,92
209,852	-22,02
210,064	51,71
210,275	-19,97
210,487	53,76
210,698	84,48
210,909	-19,97
211,121	0,51
211,332	45,57
211,544	57,86
211,755	12,8
211,966	51,71
212,178	-19,97
212,389	94,72
212,6	45,57
212,812	47,62
213,023	-7,68
213,234	12,8
213,446	51,71
213,657	-7,68
213,868	37,38
214,08	117,25
214,291	25,09
214,502	2,56
214,714	-5,63
214,925	-52,74
215,136	-75,26
215,347	12,8
215,559	-54,78
215,77	33,28
215,981	45,57
216,192	-60,93
216,404	2,56
216,615	23,04
216,826	4,61
217,037	10,75
217,249	29,18
217,46	100,86
217,671	-13,82
217,882	-11,78
218,093	49,66
218,304	-13,82
218,516	61,95
218,727	-28,16
218,938	-62,98
219,149	117,25
219,36	20,99
219,571	14,85
219,782	-15,87
219,993	25,09
220,205	-22,02
220,416	25,09
220,627	12,8
220,838	94,72
221,049	231,93
221,26	80,38
221,471	8,7
221,682	-34,3
221,893	-11,78
222,104	-19,97
222,315	-40,45
222,526	20,99
222,737	33,28
222,948	-5,63
223,159	-13,82
223,37	-22,02
223,581	-40,45
223,792	25,09
224,003	-36,35
224,214	35,33
224,425	51,71
224,636	-28,16
224,847	107,01
225,058	-3,58
225,269	-5,63
225,48	-17,92
225,691	-103,93
225,902	14,85
226,112	4,61
226,323	-52,74
226,534	29,18
226,745	-28,16
226,956	-77,31
227,167	10,75
227,378	-87,55
227,589	-28,16
227,799	152,06
228,01	-3,58
228,221	-28,16
228,432	-40,45
228,643	35,33
228,853	68,09
229,064	-7,68
229,275	-15,87
229,486	-42,5
229,697	-112,13
229,907	-69,12
230,118	-56,83
230,329	-101,89
230,54	25,09
230,75	-7,68
230,961	10,75
231,172	-42,5
231,383	-36,35
231,593	-75,26
231,804	2,56
232,015	-32,26
232,225	-46,59
232,436	53,76
232,647	61,95
232,857	86,53
233,068	-28,16
233,279	43,52
233,489	2,56
233,7	-5,63
233,91	-24,06
234,121	55,81
234,332	0,51
234,542	12,8
234,753	-24,06
234,964	-32,26
235,174	10,75
235,385	-11,78
235,595	-3,58
235,806	-7,68
236,016	-52,74
236,227	-50,69
236,437	-60,93
236,648	-11,78
236,858	25,09
237,069	-19,97
237,279	-19,97
237,49	20,99
237,7	-52,74
237,911	-65,02
238,121	10,75
238,332	-7,68
238,542	39,42
238,753	-32,26
238,963	-7,68
239,174	4,61
239,384	-40,45
239,595	10,75
239,805	-44,54
240,015	-56,83
240,226	-30,21
240,436	-1,54
240,647	-5,63
240,857	45,57
241,067	-7,68
241,278	90,62
241,488	6,66
241,698	16,9
241,909	29,18
242,119	14,85
242,329	18,94
242,54	74,24
242,75	27,14
242,96	-62,98
243,171	-58,88
243,381	68,09
243,591	-58,88
243,801	51,71
244,012	39,42
244,222	20,99
244,432	-19,97
244,642	-58,88
244,853	-85,5
245,063	27,14
245,273	-11,78
245,483	10,75
245,694	0,51
245,904	25,09
246,114	29,18
246,324	-13,82
246,534	78,33
246,744	-42,5
246,955	-87,55
247,165	84,48
247,375	29,18
247,585	-19,97
247,795	14,85
248,005	41,47
248,215	51,71
248,425	68,09
248,636	164,35
248,846	-32,26
249,056	-79,36
249,266	-17,92
249,476	2,56
249,686	31,23
249,896	-52,74
250,106	-77,31
250,316	64
250,526	57,86
250,736	-32,26
250,946	92,67
251,156	92,67
251,366	27,14
251,576	-32,26
251,786	61,95
251,996	-69,12
252,206	-56,83
252,416	-1,54
252,626	-75,26
252,836	-69,12
253,046	-11,78
253,256	43,52
253,466	25,09
253,676	4,61
253,885	27,14
254,095	12,8
254,305	-13,82
254,515	-52,74
254,725	23,04
254,935	-11,78
255,145	45,57
255,355	-13,82
255,564	4,61
255,774	8,7
255,984	84,48
256,194	20,99
256,404	27,14
256,614	12,8
256,823	45,57
257,033	-36,35
257,243	35,33
257,453	41,47
257,662	-48,64
257,872	39,42
258,082	-60,93
258,292	-42,5
258,501	37,38
258,711	133,63
258,921	68,09
259,131	-44,54
259,34	-15,87
259,55	47,62
259,76	-54,78
259,969	4,61
260,179	-34,3
260,389	-50,69
260,598	92,67
260,808	64
261,018	-46,59
261,227	33,28
261,437	-44,54
261,647	100,86
261,856	-56,83
262,066	39,42
262,275	59,9
262,485	-46,59
262,694	25,09
262,904	-13,82
263,114	74,24
263,323	-75,26
263,533	78,33
263,742	0,51
263,952	-30,21
264,161	-60,93
264,371	-40,45
264,58	4,61
264,79	-54,78
264,999	8,7
265,209	6,66
265,418	25,09
265,628	74,24
265,837	35,33
266,047	68,09
266,256	45,57
266,466	-28,16
266,675	-11,78
266,884	57,86
267,094	-5,63
267,303	61,95
267,513	14,85
267,722	59,9
267,931	4,61
268,141	-5,63
268,35	43,52
268,559	29,18
268,769	-11,78
268,978	-52,74
269,187	90,62
269,397	2,56
269,606	-67,07
269,815	-62,98
270,025	-13,82
270,234	43,52
270,443	-89,6
270,653	-40,45
270,862	-3,58
271,071	16,9
271,28	-69,12
271,49	-19,97
271,699	4,61
271,908	68,09
272,117	-46,59
272,327	-34,3
272,536	-30,21
272,745	0,51
272,954	-44,54
273,163	31,23
273,372	57,86
273,582	-22,02
273,791	-15,87
274	-118,27
274,209	6,66
274,418	4,61
274,627	68,09
274,836	0,51
275,046	6,66
275,255	102,91
275,464	4,61
275,673	-19,97
275,882	68,09
276,091	-5,63
276,3	55,81
276,509	27,14
276,718	-46,59
276,927	12,8
277,136	115,2
277,345	2,56
277,554	20,99
277,763	55,81
277,972	94,72
278,181	27,14
278,39	4,61
278,599	12,8
278,808	-13,82
279,017	82,43
279,226	-114,17
279,435	-36,35
279,644	-17,92
279,853	37,38
280,062	168,45
280,271	45,57
280,48	-83,45
280,688	10,75
280,897	64
281,106	-46,59
281,315	-7,68
281,524	-15,87
281,733	-15,87
281,942	-11,78
282,151	-11,78
282,359	45,57
282,568	-11,78
282,777	49,66
282,986	-15,87
283,195	23,04
283,403	-5,63
283,612	-56,83
283,821	29,18
284,03	-28,16
284,238	-40,45
284,447	61,95
284,656	12,8
284,865	84,48
285,073	59,9
285,282	-28,16
285,491	-9,73
285,699	-42,5
285,908	74,24
286,117	53,76
286,325	49,66
286,534	117,25
286,743	23,04
286,951	2,56
287,16	117,25
287,369	4,61
287,577	76,29
287,786	-3,58
287,995	-11,78
288,203	0,51
288,412	12,8
288,62	35,33
288,829	66,05
289,037	33,28
289,246	-11,78
289,455	-22,02
289,663	4,61
289,872	59,9
290,08	14,85
290,289	100,86
290,497	-56,83
290,706	86,53
290,914	-128,51
291,123	-62,98
291,331	70,14
291,54	88,57
291,748	64
291,957	55,81
292,165	14,85
292,373	-28,16
292,582	-28,16
292,79	27,14
292,999	45,57
293,207	-19,97
293,415	-3,58
293,624	-136,7
293,832	10,75
294,041	49,66
294,249	6,66
294,457	-28,16
294,666	12,8
294,874	-17,92
295,082	-3,58
295,291	14,85
295,499	35,33
295,707	45,57
295,915	4,61
296,124	-22,02
296,332	29,18
296,54	68,09
296,749	74,24
296,957	25,09
297,165	-32,26
297,373	8,7
297,581	47,62
297,79	16,9
297,998	-36,35
298,206	-65,02
298,414	4,61
298,622	-36,35
298,831	29,18
299,039	20,99
299,247	37,38
299,455	-71,17
299,663	98,81
299,871	6,66
300,08	2,56
300,288	14,85
300,496	-19,97
300,704	4,61
300,912	25,09
301,12	2,56
301,328	8,7
301,536	-44,54
301,744	-62,98
301,952	-1,54
302,16	-40,45
302,368	-22,02
302,576	-13,82
302,784	31,23
302,992	-65,02
303,2	-22,02
303,408	33,28
303,616	-7,68
303,824	45,57
304,032	100,86
304,24	27,14
304,448	16,9
304,656	-11,78
304,864	90,62
305,072	98,81
305,28	18,94
305,488	0,51
305,696	-60,93
305,904	31,23
306,111	-73,21
306,319	4,61
306,527	4,61
306,735	35,33
306,943	59,9
307,151	-65,02
307,359	-42,5
307,566	84,48
307,774	-3,58
307,982	12,8
308,19	-58,88
308,398	10,75
308,605	-5,63
308,813	-17,92
309,021	-62,98
309,229	8,7
309,436	-22,02
309,644	16,9
309,852	74,24
310,06	123,39
310,267	-50,69
310,475	-46,59
310,683	72,19
310,89	66,05
311,098	2,56
311,306	-19,97
311,513	-5,63
311,721	-22,02
311,929	-3,58
312,136	29,18
312,344	0,51
312,552	98,81
312,759	-44,54
312,967	12,8
313,174	57,86
313,382	-3,58
313,589	27,14
313,797	61,95
314,005	20,99
314,212	14,85
314,42	-56,83
314,627	20,99
314,835	-5,63
315,042	-19,97
315,25	-97,79
315,457	-52,74
315,665	-93,69
315,872	53,76
316,08	20,99
316,287	-19,97
316,495	254,46
316,702	4,61
316,909	-77,31
317,117	49,66
317,324	74,24
317,532	111,1
317,739	12,8
317,946	-40,45
318,154	-9,73
318,361	-22,02
318,569	-24,06
318,776	-65,02
318,983	4,61
319,191	-26,11
319,398	-52,74
319,605	-5,63
319,813	35,33
320,02	-38,4
320,227	37,38
320,434	96,77
320,642	-38,4
320,849	-3,58
321,056	20,99
321,264	25,09
321,471	6,66
321,678	35,33
321,885	10,75
322,092	107,01
322,3	-52,74
322,507	16,9
322,714	-19,97
322,921	-22,02
323,128	-46,59
323,336	-28,16
323,543	25,09
323,75	59,9
323,957	20,99
324,164	-46,59
324,371	55,81
324,578	-52,74
324,786	55,81
324,993	-50,69
325,2	39,42
325,407	-24,06
325,614	49,66
325,821	107,01
326,028	152,06
326,235	8,7
326,442	88,57
326,649	-44,54
326,856	12,8
327,063	-44,54
327,27	10,75
327,477	-5,63
327,684	-67,07
327,891	-52,74
328,098	49,66
328,305	-44,54
328,512	-19,97
328,719	33,28
328,926	127,49
329,133	-79,36
329,34	96,77
329,546	10,75
329,753	35,33
329,96	-19,97
330,167	0,51
330,374	27,14
330,581	20,99
330,788	-108,03
330,995	25,09
331,201	-77,31
331,408	-26,11
331,615	-28,16
331,822	45,57
332,029	-52,74
332,235	-19,97
332,442	-22,02
332,649	10,75
332,856	-52,74
333,062	29,18
333,269	-73,21
333,476	45,57
333,683	-13,82
333,889	102,91
334,096	61,95
334,303	37,38
334,509	27,14
334,716	74,24
334,923	35,33
335,129	-7,68
335,336	39,42
335,543	-32,26
335,749	53,76
335,956	78,33
336,163	14,85
336,369	-28,16
336,576	57,86
336,782	55,81
336,989	12,8
337,196	-7,68
337,402	-58,88
337,609	-34,3
337,815	-73,21
338,022	49,66
338,228	78,33
338,435	190,97
338,641	53,76
338,848	104,96
339,054	86,53
339,261	49,66
339,467	-77,31
339,674	70,14
339,88	4,61
340,087	20,99
340,293	29,18
340,5	96,77
340,706	102,91
340,912	4,61
341,119	-19,97
341,325	-46,59
341,532	-15,87
341,738	18,94
341,944	-32,26
342,151	57,86
342,357	53,76
342,563	53,76
342,77	74,24
342,976	-15,87
343,182	217,6
343,389	-19,97
343,595	-1,54
343,801	-17,92
344,007	78,33
344,214	-13,82
344,42	-11,78
344,626	64
344,832	12,8
345,039	59,9
345,245	102,91
345,451	-22,02
345,657	31,23
345,864	-5,63
346,07	66,05
346,276	127,49
346,482	139,77
346,688	119,29
346,894	31,23
347,1	76,29
347,307	102,91
347,513	102,91
347,719	84,48
347,925	43,52
348,131	-19,97
348,337	160,25
348,543	84,48
348,749	31,23
348,955	168,45
349,161	-28,16
349,367	104,96
349,573	51,71
349,779	68,09
349,985	139,77
350,191	49,66
350,397	129,53
350,603	45,57
350,809	88,57
351,015	47,62
351,221	35,33
351,427	86,53
351,633	61,95
351,839	57,86
352,045	113,15
352,251	160,25
352,457	100,86
352,663	61,95
352,869	0,51
353,075	14,85
353,28	70,14
353,486	100,86
353,692	64
353,898	104,96
354,104	12,8
354,31	131,58
354,515	43,52
354,721	96,77
354,927	70,14
355,133	119,29
355,339	90,62
355,544	82,43
355,75	86,53
355,956	70,14
356,162	66,05
356,367	47,62
356,573	107,01
356,779	25,09
356,984	152,06
357,19	111,1
357,396	150,01
357,602	231,93
357,807	129,53
358,013	80,38
358,218	135,68
358,424	51,71
358,63	68,09
358,835	170,49
359,041	47,62
359,247	29,18
359,452	51,71
359,658	76,29
359,863	86,53
360,069	70,14
360,274	127,49
360,48	231,93
360,685	127,49
360,891	170,49
361,097	61,95
361,302	119,29
361,508	143,87
361,713	100,86
361,918	188,93
362,124	78,33
362,329	59,9
362,535	127,49
362,74	119,29
362,946	160,25
363,151	268,8
363,357	508,41
363,562	690,68
363,767	1346,03
363,973	2312,67
364,178	3150,29
364,383	3721,67
364,589	4282,81
364,794	4016,58
365	3619,27
365,205	2791,89
365,41	2398,68
365,615	1853,92
365,821	1448,43
366,026	1190,38
366,231	877,04
366,437	553,46
366,642	305,66
366,847	315,9
367,052	137,73
367,258	90,62
367,463	141,82
367,668	121,34
367,873	166,4
368,078	182,78
368,284	37,38
368,489	115,2
368,694	123,39
368,899	111,1
369,104	78,33
369,309	137,73
369,515	-36,35
369,72	113,15
369,925	100,86
370,13	145,92
370,335	78,33
370,54	35,33
370,745	92,67
370,95	119,29
371,155	162,3
371,36	156,16
371,565	90,62
371,77	70,14
371,975	18,94
372,18	152,06
372,385	166,4
372,59	133,63
372,795	27,14
373	184,83
373,205	201,21
373,41	111,1
373,615	35,33
373,82	29,18
374,025	25,09
374,23	45,57
374,435	127,49
374,64	84,48
374,845	170,49
375,05	113,15
375,254	119,29
375,459	109,05
375,664	78,33
375,869	74,24
376,074	109,05
376,279	45,57
376,483	88,57
376,688	20,99
376,893	203,26
377,098	45,57
377,303	129,53
377,507	156,16
377,712	160,25
377,917	152,06
378,122	143,87
378,326	117,25
378,531	125,44
378,736	137,73
378,94	92,67
379,145	154,11
379,35	178,69
379,554	121,34
379,759	107,01
379,964	174,59
380,168	100,86
380,373	168,45
380,578	156,16
380,782	172,54
380,987	199,16
381,191	135,68
381,396	135,68
381,601	154,11
381,805	119,29
382,01	180,73
382,214	90,62
382,419	49,66
382,623	49,66
382,828	66,05
383,032	53,76
383,237	59,9
383,441	82,43
383,646	94,72
383,85	70,14
384,055	156,16
384,259	43,52
384,464	27,14
384,668	51,71
384,872	70,14
385,077	182,78
385,281	66,05
385,486	55,81
385,69	45,57
385,894	37,38
386,099	100,86
386,303	119,29
386,507	94,72
386,712	86,53
386,916	100,86
387,12	2,56
387,325	94,72
387,529	51,71
387,733	96,77
387,937	2,56
388,142	10,75
388,346	10,75
388,55	70,14
388,754	20,99
388,959	61,95
389,163	45,57
389,367	33,28
389,571	53,76
389,775	86,53
389,98	127,49
390,184	74,24
390,388	31,23
390,592	109,05
390,796	68,09
391	104,96
391,204	20,99
391,409	-44,54
391,613	29,18
391,817	-40,45
392,021	107,01
392,225	66,05
392,429	4,61
392,633	8,7
392,837	0,51
393,041	35,33
393,245	41,47
393,449	10,75
393,653	8,7
393,857	94,72
394,061	53,76
394,265	74,24
394,469	33,28
394,673	53,76
394,877	57,86
395,081	57,86
395,285	164,35
395,489	37,38
395,693	-19,97
395,896	25,09
396,1	61,95
396,304	78,33
396,508	25,09
396,712	94,72
396,916	20,99
397,12	76,29
397,323	37,38
397,527	41,47
397,731	45,57
397,935	82,43
398,139	49,66
398,342	115,2
398,546	12,8
398,75	57,86
398,954	51,71
399,157	80,38
399,361	117,25
399,565	-24,06
399,769	143,87
399,972	88,57
400,176	29,18
400,38	117,25
400,583	39,42
400,787	113,15
400,991	-5,63
401,194	76,29
401,398	8,7
401,601	137,73
401,805	137,73
402,009	127,49
402,212	176,64
402,416	360,95
402,619	446,97
402,823	987,63
403,026	1845,73
403,23	3580,36
403,433	6404,51
403,637	8061,32
403,841	9116,02
404,044	9400,69
404,247	8505,73
404,451	5767,59
404,654	3426,76
404,858	2312,67
405,061	1460,71
405,265	1108,46
405,468	889,33
405,672	588,28
405,875	420,35
406,078	436,73
406,282	492,02
406,485	565,75
406,689	735,73
406,892	823,8
407,095	782,84
407,299	780,79
407,502	608,76
407,705	348,67
407,909	240,12
408,112	199,16
408,315	203,26
408,518	281,08
408,722	152,06
408,925	102,91
409,128	119,29
409,331	123,39
409,535	184,83
409,738	145,92
409,941	162,3
410,144	80,38
410,347	141,82
410,551	197,12
410,754	98,81
410,957	100,86
411,16	86,53
411,363	156,16
411,566	90,62
411,769	180,73
411,973	150,01
412,176	180,73
412,379	225,79
412,582	117,25
412,785	193,02
412,988	51,71
413,191	195,07
413,394	160,25
413,597	12,8
413,8	127,49
414,003	223,74
414,206	119,29
414,409	150,01
414,612	166,4
414,815	160,25
415,018	82,43
415,221	170,49
415,424	205,31
415,627	100,86
415,83	141,82
416,033	195,07
416,235	147,97
416,438	217,6
416,641	219,64
416,844	98,81
417,047	127,49
417,25	113,15
417,453	150,01
417,655	115,2
417,858	221,69
418,061	100,86
418,264	121,34
418,467	154,11
418,669	233,98
418,872	238,08
419,075	143,87
419,278	35,33
419,48	135,68
419,683	94,72
419,886	53,76
420,089	193,02
420,291	205,31
420,494	172,54
420,697	129,53
420,899	164,35
421,102	143,87
421,305	147,97
421,507	109,05
421,71	219,64
421,912	258,56
422,115	143,87
422,318	135,68
422,52	164,35
422,723	119,29
422,925	242,17
423,128	221,69
423,33	115,2
423,533	201,21
423,735	133,63
423,938	170,49
424,14	160,25
424,343	279,04
424,545	197,12
424,748	231,93
424,95	176,64
425,153	166,4
425,355	96,77
425,558	281,08
425,76	285,18
425,962	221,69
426,165	231,93
426,367	156,16
426,57	264,7
426,772	160,25
426,974	266,75
427,177	221,69
427,379	184,83
427,581	340,47
427,784	176,64
427,986	203,26
428,188	229,88
428,39	156,16
428,593	184,83
428,795	213,5
428,997	313,85
429,2	209,4
429,402	186,88
429,604	182,78
429,806	233,98
430,008	303,61
430,211	322,04
430,413	244,22
430,615	262,65
430,817	301,56
431,019	303,61
431,221	305,66
431,423	217,6
431,626	375,29
431,828	295,42
432,03	209,4
432,232	406,01
432,434	369,15
432,636	463,35
432,838	467,45
433,04	508,41
433,242	702,97
433,444	1108,46
433,646	1999,33
433,848	3289,55
434,05	6717,85
434,252	12288,32
434,454	20691,14
434,656	27467,87
434,858	30406,7
435,06	30773,29
435,262	26103,92
435,464	18716,9
435,666	11450,71
435,868	7506,32
436,07	5527,98
436,271	4377,02
436,473	3303,89
436,675	2755,03
436,877	2105,82
437,079	1624,55
437,281	1239,53
437,482	963,06
437,684	752,12
437,886	526,84
438,088	549,37
438,29	403,96
438,491	393,72
438,693	252,41
438,895	377,34
439,097	510,46
439,298	340,47
439,5	346,62
439,702	354,81
439,903	379,39
440,105	356,86
440,307	453,11
440,508	424,44
440,71	338,43
440,912	320
441,113	313,85
441,315	379,39
441,517	348,67
441,718	420,35
441,92	397,82
442,121	395,77
442,323	360,95
442,524	309,76
442,726	395,77
442,928	303,61
443,129	371,19
443,331	387,58
443,532	422,39
443,734	373,24
443,935	395,77
444,136	297,47
444,338	387,58
444,539	338,43
444,741	408,06
444,942	352,76
445,144	401,91
445,345	397,82
445,546	279,04
