Data from USB4F035431__17__14-46-40-507.txt Node

Date: Wed Feb 12 14:46:40 CET 2025
User: Versuch 234
Spectrometer: USB4F03543
Trigger mode: 4
Integration Time (sec): 1,000000E-1
Scans to average: 40
Electric dark correction enabled: true
Nonlinearity correction enabled: false
Boxcar width: 0
XAxis mode: Wavelengths
Number of Pixels in Spectrum: 3648
>>>>>Begin Spectral Data<<<<<
179,969	-177,33
180,181	-177,33
180,394	-177,33
180,606	-199,34
180,819	-179,68
181,031	22,55
181,243	77,13
181,456	-53,99
181,668	52,04
181,88	19,23
182,093	-19,28
182,305	-68,84
182,518	-32,49
182,73	42,93
182,942	3,05
183,155	-30,28
183,367	-12,06
183,579	39,09
183,791	287,97
184,004	349,2
184,216	366,3
184,428	353,86
184,641	357,7
184,853	311,62
185,065	327,85
185,277	373,01
185,49	390,42
185,702	318,54
185,914	302,87
186,126	352,17
186,338	372,91
186,551	370,2
186,763	372,65
186,975	305,74
187,187	365,18
187,399	333,79
187,612	368,66
187,824	346,95
188,036	369,84
188,248	382,53
188,46	375,06
188,672	384,33
188,885	340,14
189,097	403,94
189,309	319,36
189,521	353,2
189,733	375,42
189,945	366,51
190,157	379,41
190,369	323,45
190,581	331,18
190,794	390,98
191,006	308,76
191,218	349,92
191,43	377,88
191,642	314,54
191,854	365,13
192,066	404,5
192,278	386,78
192,49	303,59
192,702	345,57
192,914	371,37
193,126	379,57
193,338	363,9
193,55	356,99
193,762	407,37
193,974	315,98
194,186	339,83
194,398	346,44
194,61	375,78
194,822	413,41
195,034	413,82
195,246	435,83
195,457	418,84
195,669	507,1
195,881	482,53
196,093	476,64
196,305	499,42
196,517	393,29
196,729	476,33
196,941	393,65
197,153	460,87
197,365	453,55
197,576	334,56
197,788	324,12
198	403,37
198,212	431,28
198,424	404,76
198,636	325,4
198,847	321,04
199,059	376,95
199,271	339,94
199,483	381
199,695	362,72
199,906	398,1
200,118	335,28
200,33	425,54
200,542	736,53
200,753	369,27
200,965	352,63
201,177	408,34
201,389	402,45
201,6	323,71
201,812	382,74
202,024	373,47
202,235	348,85
202,447	408,39
202,659	403,48
202,871	366,97
203,082	354,22
203,294	330,57
203,506	381,77
203,717	375,06
203,929	387,3
204,141	338,76
204,352	431,02
204,564	333,59
204,775	352,38
204,987	453,96
205,199	391,39
205,41	370,55
205,622	401,63
205,833	339,37
206,045	387,96
206,257	348,13
206,468	317,46
206,68	319,41
206,891	347,36
207,103	328,26
207,314	305,38
207,526	386,48
207,737	345,62
207,949	383,92
208,16	389,34
208,372	363,59
208,583	371,99
208,795	372,96
209,006	373,83
209,218	393,13
209,429	337,02
209,641	365,38
209,852	363,28
210,064	386,89
210,275	339,99
210,487	399,89
210,698	411,41
210,909	384,58
211,121	377,98
211,332	383,76
211,544	402,55
211,755	441,11
211,966	439,11
212,178	370,91
212,389	496,2
212,6	363,74
212,812	480,07
213,023	400,3
213,234	416,17
213,446	389,24
213,657	330,93
213,868	420,99
214,08	463,33
214,291	390,57
214,502	395,03
214,714	320,12
214,925	354,22
215,136	364,87
215,347	376,6
215,559	328,21
215,77	336,92
215,981	428,51
216,192	323,86
216,404	373,98
216,615	415
216,826	405,88
217,037	362,46
217,249	405,37
217,46	449,61
217,671	397,95
217,882	371,83
218,093	387,91
218,304	396,77
218,516	410,9
218,727	340,14
218,938	349,92
219,149	490,92
219,36	406,85
219,571	405,98
219,782	354,32
219,993	446,38
220,205	346,03
220,416	447,2
220,627	391,55
220,838	439,42
221,049	529,68
221,26	447,25
221,471	369,38
221,682	406,55
221,893	443,51
222,104	325,19
222,315	306,91
222,526	331,13
222,737	374,65
222,948	340,55
223,159	401,99
223,37	413,82
223,581	357,45
223,792	365,23
224,003	383,05
224,214	354,43
224,425	424,47
224,636	320,17
224,847	421,04
225,058	395,18
225,269	411,16
225,48	379,16
225,691	347,62
225,902	414,33
226,112	405,52
226,323	352,84
226,534	399,07
226,745	381,97
226,956	383,61
227,167	377,36
227,378	404,5
227,589	373,93
227,799	490,67
228,01	426,41
228,221	399,33
228,432	450,53
228,643	435,07
228,853	475,36
229,064	489,59
229,275	554,41
229,486	541,87
229,697	566,14
229,907	566,39
230,118	583,65
230,329	521,69
230,54	460,36
230,75	470,65
230,961	470,14
231,172	399,79
231,383	363,44
231,593	376,85
231,804	435,17
232,015	429,13
232,225	426,57
232,436	411,1
232,647	466,6
232,857	473,06
233,068	428,97
233,279	472,9
233,489	452,88
233,7	472,08
233,91	450,73
234,121	463,74
234,332	487,49
234,542	503,83
234,753	483,96
234,964	540,95
235,174	512,94
235,385	569,16
235,595	544,58
235,806	627,27
236,016	542,63
236,227	542,02
236,437	538,95
236,648	576,27
236,858	586,51
237,069	564,04
237,279	590,1
237,49	597,73
237,7	622,56
237,911	625,83
238,121	590,45
238,332	593,68
238,542	668,23
238,753	647,29
238,963	621,33
239,174	700,07
239,384	648,21
239,595	657,99
239,805	638,33
240,015	649,28
240,226	664,34
240,436	693,98
240,647	677,44
240,857	659,88
241,067	695,62
241,278	831,09
241,488	650,97
241,698	710,16
241,909	659,52
242,119	676,52
242,329	689,83
242,54	700,79
242,75	664,54
242,96	639,25
243,171	680,57
243,381	699,61
243,591	665,62
243,801	769,04
244,012	778,36
244,222	709,75
244,432	649,64
244,642	704,17
244,853	713,23
245,063	726,24
245,273	768,78
245,483	744,87
245,694	739,85
245,904	771,96
246,114	801,7
246,324	750,15
246,534	791,16
246,744	752,65
246,955	692,34
247,165	863,4
247,375	867,55
247,585	789,82
247,795	813,89
248,005	824,13
248,215	860,22
248,425	866,88
248,636	988,78
248,846	817,73
249,056	837,75
249,266	816,04
249,476	847,73
249,686	877,94
249,896	823,57
250,106	853,72
250,316	841,02
250,526	957,81
250,736	813,84
250,946	944,09
251,156	927,24
251,366	843,48
251,576	919,05
251,786	931,08
251,996	850,19
252,206	851,62
252,416	876,35
252,626	819,57
252,836	827,05
253,046	889,66
253,256	920,54
253,466	862,02
253,676	874,05
253,885	924,84
254,095	858,84
254,305	880,24
254,515	871,28
254,725	859,56
254,935	828,02
255,145	867,34
255,355	881,78
255,564	815,17
255,774	809,23
255,984	894,17
256,194	841,95
256,404	835,9
256,614	867,14
256,823	923,76
257,033	863,55
257,243	901,7
257,453	877,94
257,662	862,58
257,872	906,97
258,082	862,02
258,292	797,25
258,501	948,95
258,711	1000,46
258,921	921,36
259,131	789,62
259,34	824,79
259,55	832,63
259,76	806,52
259,969	809,28
260,179	807,08
260,389	843,17
260,598	893,2
260,808	859,2
261,018	829,56
261,227	880,6
261,437	821,57
261,647	883,26
261,856	793,51
262,066	838,46
262,275	908,04
262,485	797,71
262,694	866,37
262,904	827,1
263,114	864,83
263,323	796,07
263,533	821,06
263,742	806,11
263,952	825,51
264,161	770,68
264,371	807,9
264,58	821,41
264,79	789,52
264,999	809,13
265,209	833,5
265,418	825,72
265,628	804,62
265,837	794,18
266,047	804,93
266,256	860,38
266,466	755,67
266,675	776,36
266,884	793
267,094	802,01
267,303	850,09
267,513	802,78
267,722	834,73
267,931	804,06
268,141	761,72
268,35	791,72
268,559	831,3
268,769	750,76
268,978	734,84
269,187	793,66
269,397	751,53
269,606	724,65
269,815	740,98
270,025	768,17
270,234	769,29
270,443	715,64
270,653	759,98
270,862	763,41
271,071	766,22
271,28	716,3
271,49	770,42
271,699	734,79
271,908	779,18
272,117	759,72
272,327	741,7
272,536	725,11
272,745	724,19
272,954	720,3
273,163	755,11
273,372	786,65
273,582	697,72
273,791	719,12
274	706,47
274,209	697,1
274,418	779,33
274,627	783,32
274,836	691,57
275,046	686,2
275,255	692,44
275,464	638,12
275,673	603,87
275,882	663,26
276,091	585,8
276,3	595,98
276,509	565,52
276,718	531,22
276,927	479,4
277,136	513,4
277,345	487,8
277,554	498,35
277,763	525,79
277,972	493,79
278,181	512,58
278,39	463,48
278,599	496,97
278,808	473,77
279,017	541,41
279,226	454,83
279,435	499,12
279,644	510,84
279,853	544,17
280,062	609,19
280,271	471,62
280,48	485,96
280,688	480,38
280,897	513,55
281,106	423,6
281,315	426,46
281,524	476,95
281,733	492
281,942	462,92
282,151	513,04
282,359	546,07
282,568	489,75
282,777	563,42
282,986	552,06
283,195	635,97
283,403	718,86
283,612	792,9
283,821	858,84
284,03	880,29
284,238	900,42
284,447	845,43
284,656	695,72
284,865	662,75
285,073	525,79
285,282	487,24
285,491	467,53
285,699	414,18
285,908	446,69
286,117	457,9
286,325	479,46
286,534	529,99
286,743	484,58
286,951	465,12
287,16	508,33
287,369	460,46
287,577	494,05
287,786	449,3
287,995	467,06
288,203	441,16
288,412	491,79
288,62	465,73
288,829	450,78
289,037	460,26
289,246	464,61
289,455	467,12
289,663	499,06
289,872	542,63
290,08	492,1
290,289	546,99
290,497	432,2
290,706	501,93
290,914	435,73
291,123	459,49
291,331	492,61
291,54	585,34
291,748	593,01
291,957	525,89
292,165	497,27
292,373	438,34
292,582	473,87
292,79	491,33
292,999	515,29
293,207	501,83
293,415	467,32
293,624	416,43
293,832	474,59
294,041	501,98
294,249	472,39
294,457	461,43
294,666	496,3
294,874	435,22
295,082	518,62
295,291	507,41
295,499	475,62
295,707	519,9
295,915	507
296,124	552,87
296,332	509,87
296,54	521,75
296,749	566,65
296,957	539
297,165	513,76
297,373	496,45
297,581	492,51
297,79	506,69
297,998	456,42
298,206	463,89
298,414	496,15
298,622	516,93
298,831	565,73
299,039	475,82
299,247	550,16
299,455	522,16
299,663	575,66
299,871	504,18
300,08	496,2
300,288	521,8
300,496	496,86
300,704	483,04
300,912	503,93
301,12	511,56
301,328	505,93
301,536	499,78
301,744	464,76
301,952	536,13
302,16	471,93
302,368	500,14
302,576	524,97
302,784	591,02
302,992	509,25
303,2	596,39
303,408	666,54
303,616	749,63
303,824	936,82
304,032	1031,43
304,24	1089,9
304,448	991,45
304,656	884,65
304,864	867,03
305,072	714,82
305,28	646,11
305,488	562,3
305,696	560,4
305,904	560,09
306,111	471,72
306,319	523,28
306,527	551,9
306,735	561,43
306,943	556,87
307,151	529,89
307,359	491,44
307,566	599,98
307,774	598,6
307,982	579,45
308,19	509,87
308,398	563,42
308,605	582,88
308,813	555,84
309,021	584,52
309,229	608,89
309,436	538,9
309,644	585,8
309,852	587,23
310,06	641,91
310,267	515,45
310,475	545,09
310,683	547,24
310,89	549,09
311,098	578,12
311,306	517,91
311,513	581,39
311,721	501,78
311,929	555,08
312,136	534,14
312,344	518,21
312,552	591,48
312,759	508,28
312,967	591,99
313,174	580,68
313,382	557,94
313,589	572,79
313,797	625,01
314,005	573,3
314,212	573
314,42	483,65
314,627	526,56
314,835	519,39
315,042	544,84
315,25	479,66
315,457	507,77
315,665	467,22
315,872	594,4
316,08	599,26
316,287	518,88
316,495	861,3
316,702	526,25
316,909	518,06
317,117	602,28
317,324	564,5
317,532	619,23
317,739	534,8
317,946	554,36
318,154	539,51
318,361	535,21
318,569	604,18
318,776	551,08
318,983	540,02
319,191	594,91
319,398	580,47
319,605	579,55
319,813	615,8
320,02	518,67
320,227	672,37
320,434	667,61
320,642	606,02
320,849	599,26
321,056	630,13
321,264	648,57
321,471	633,97
321,678	656,5
321,885	615,49
322,092	683,07
322,3	636,02
322,507	584,36
322,714	645,75
322,921	597,06
323,128	588,82
323,336	607,5
323,543	674,17
323,75	681,23
323,957	657,78
324,164	644,98
324,371	659,98
324,578	561,99
324,786	670,58
324,993	622,76
325,2	651,89
325,407	553,8
325,614	630,85
325,821	712,72
326,028	784,19
326,235	699,92
326,442	670,84
326,649	653,12
326,856	722,8
327,063	663,77
327,27	690,86
327,477	743,23
327,684	736,83
327,891	850,91
328,098	1119,6
328,305	1810,28
328,512	2905,94
328,719	5830,8
328,926	10421,58
329,133	19359,17
329,34	32443,9
329,546	51711,29
329,753	62946,39
329,96	64330,05
330,167	64330,05
330,374	64330,05
330,581	52210,84
330,788	32704,45
330,995	17987,64
331,201	10662,88
331,408	5571,73
331,615	3062,61
331,822	1732,35
332,029	1285,13
332,235	1051,71
332,442	944,55
332,649	870,62
332,856	805,8
333,062	793,87
333,269	779,74
333,476	800,73
333,683	761,41
333,889	775,74
334,096	753,52
334,303	793,31
334,509	723,68
334,716	754,04
334,923	752,14
335,129	719,17
335,336	759,72
335,543	739,44
335,749	722,8
335,956	811,58
336,163	690,86
336,369	740,62
336,576	757,62
336,782	777,79
336,989	705,96
337,196	753,83
337,402	685,63
337,609	705,86
337,815	728,39
338,022	779,53
338,228	774,87
338,435	889,87
338,641	810,97
338,848	840,61
339,054	809,02
339,261	747,89
339,467	709,75
339,674	808,92
339,88	792,13
340,087	751,58
340,293	735,86
340,5	764,07
340,706	773,7
340,912	725,83
341,119	745,03
341,325	743,95
341,532	752,35
341,738	759,98
341,944	818,55
342,151	791,05
342,357	767,09
342,563	818,8
342,77	761,56
342,976	756,39
343,182	894,53
343,389	770,98
343,595	754,09
343,801	731,2
344,007	797,3
344,214	730,08
344,42	778,56
344,626	779,94
344,832	751,94
345,039	799,09
345,245	799,5
345,451	778,3
345,657	828,38
345,864	768,83
346,07	830,32
346,276	825,2
346,482	910,14
346,688	841,48
346,894	779,28
347,1	829,04
347,307	820,19
347,513	861,04
347,719	807,44
347,925	822,03
348,131	754,24
348,337	895,86
348,543	785,98
348,749	796,53
348,955	890,94
349,161	782,2
349,367	841,38
349,573	895,4
349,779	883,11
349,985	832,83
350,191	817,78
350,397	857,82
350,603	883,57
350,809	823,97
351,015	864,17
351,221	838,16
351,427	887,72
351,633	856,08
351,839	900,01
352,045	858,89
352,251	935,64
352,457	876,51
352,663	879,42
352,869	859,56
353,075	873,13
353,28	835,96
353,486	870,98
353,692	860,38
353,898	866,06
354,104	881,32
354,31	952,54
354,515	905,84
354,721	976,75
354,927	1000,41
355,133	1052,07
355,339	1018,28
355,544	1039,16
355,75	1024,93
355,956	1012,59
356,162	1013,87
356,367	995,9
356,573	1016,02
356,779	992,42
356,984	1048,33
357,19	1097,43
357,396	1092,62
357,602	1240,94
357,807	1206,84
358,013	1295,31
358,218	1372,93
358,424	1367,92
358,63	1370,88
358,835	1379,28
359,041	1258,86
359,247	1223,28
359,452	1111,56
359,658	1088,42
359,863	1085,86
360,069	1069,68
360,274	1053,96
360,48	1108,59
360,685	1034,35
360,891	1048,48
361,097	956,63
361,302	979,83
361,508	1041,72
361,713	981,31
361,918	1067,27
362,124	953,05
362,329	1019,04
362,535	1012,34
362,74	1017,35
362,946	1032,61
363,151	1040,8
363,357	1007,27
363,562	1012,54
363,767	961,34
363,973	1056,47
364,178	990,63
364,383	993,8
364,589	1036,2
364,794	977,27
365	1045,1
365,205	1073,83
365,41	1009,52
365,615	1070,91
365,821	986,33
366,026	1071,93
366,231	1038,91
366,437	1065,69
366,642	972,61
366,847	1082,68
367,052	1038,45
367,258	981,57
367,463	1003,17
367,668	1029,33
367,873	1110,02
368,078	1101,22
368,284	976,91
368,489	1028,93
368,694	1081,25
368,899	1069,99
369,104	1050,07
369,309	1041,26
369,515	1007,58
369,72	1074,95
369,925	1014,33
370,13	1071,01
370,335	1094,36
370,54	1023,55
370,745	1059,03
370,95	1058,11
371,155	1124,87
371,36	1077,72
371,565	1078,23
371,77	1083,35
371,975	998
372,18	1123,08
372,385	1109,21
372,59	1085,91
372,795	1046,44
373	1097,63
373,205	1098,4
373,41	1086,17
373,615	1038,5
373,82	1024,27
374,025	1063,74
374,23	1010,75
374,435	1104,03
374,64	1112,33
374,845	1115,04
375,05	1102,19
375,254	1070,04
375,459	1048,12
375,664	1062,77
375,869	1087,91
376,074	1063,59
376,279	1067,32
376,483	1093,49
376,688	1060,46
376,893	1158,46
377,098	1068,66
377,303	1120,42
377,507	1114,94
377,712	1179,6
377,917	1129,48
378,122	1137,37
378,326	1102,81
378,531	1057,7
378,736	1064,56
378,94	1064,71
379,145	1062,46
379,35	1077,97
379,554	1074,59
379,759	1042,49
379,964	1095,69
380,168	1044,13
380,373	1083,45
380,578	1136,65
380,782	1137,88
380,987	1103,47
381,191	1081,2
381,396	1093,03
381,601	1079,97
381,805	1086,42
382,01	1168,85
382,214	1116,27
382,419	1113,71
382,623	1131,32
382,828	1119,5
383,032	1093,95
383,237	1030,51
383,441	1047,25
383,646	1086,68
383,85	999,13
384,055	1063,33
384,259	1049,2
384,464	1001,99
384,668	1010,29
384,872	1035,89
385,077	1035,58
385,281	1062,72
385,486	1011,52
385,69	1081,61
385,894	1129,02
386,099	1118,73
386,303	1088,88
386,507	1130,61
386,712	1146,12
386,916	1060
387,12	1063,79
387,325	1127,94
387,529	1094,41
387,733	1112,58
387,937	1064,71
388,142	1063,89
388,346	1057,7
388,55	1131,68
388,754	1108,95
388,959	1059,39
389,163	1082,38
389,367	1063,33
389,571	1025,24
389,775	1092,77
389,98	1066,45
390,184	1052,99
390,388	1039,16
390,592	1080,33
390,796	1087,19
391	1086,88
391,204	1099,89
391,409	1105,93
391,613	1163,43
391,817	1188,82
392,021	1295,52
392,225	1253,43
392,429	1202,18
392,633	1175,46
392,837	1162,71
393,041	1157,18
393,245	1174,02
393,449	1169,42
393,653	1334,28
393,857	1495,66
394,061	1598,57
394,265	1559,45
394,469	1585,41
394,673	1496,89
394,877	1359,88
395,081	1323,06
395,285	1234,9
395,489	1113,05
395,693	1105,52
395,896	1063,33
396,1	1071,01
396,304	1076,54
396,508	1010,13
396,712	1027,49
396,916	1018,43
397,12	1074,39
397,323	1085,4
397,527	1063,59
397,731	1100,71
397,935	1057,75
398,139	1029,33
398,342	1087,34
398,546	1074,03
398,75	1030,21
398,954	1075,93
399,157	1113,97
399,361	1114,58
399,565	1028,98
399,769	1154,41
399,972	1087,45
400,176	1076,85
400,38	1054,93
400,583	1062,67
400,787	1109,62
400,991	1077,87
401,194	1103,57
401,398	1107,26
401,601	1097,94
401,805	1123,39
402,009	1119,55
402,212	1128,46
402,416	1261,83
402,619	1173,05
402,823	1331,92
403,026	1414,76
403,23	1639,27
403,433	2007,29
403,637	2048,76
403,841	2159,1
404,044	2117,47
404,247	1916,11
404,451	1706,6
404,654	1539,48
404,858	1422,03
405,061	1314,87
405,265	1239,15
405,468	1239,46
405,672	1156,31
405,875	1182,37
406,078	1145,71
406,282	1132,65
406,485	1123,13
406,689	1214,78
406,892	1243,86
407,095	1163,68
407,299	1168,55
407,502	1237,87
407,705	1205,82
407,909	1303,86
408,112	1387,01
408,315	1483,01
408,518	1589,91
408,722	1517,37
408,925	1511,17
409,128	1526,74
409,331	1435,04
409,535	1439,65
409,738	1358,44
409,941	1381,38
410,144	1251,18
410,347	1318,25
410,551	1250,46
410,754	1195,42
410,957	1227,12
411,16	1197,58
411,363	1257,12
411,566	1263,11
411,769	1292,7
411,973	1299,51
412,176	1386,65
412,379	1418,91
412,582	1348,66
412,785	1302,18
412,988	1217,18
413,191	1288,04
413,394	1275,86
413,597	1299
413,8	1407,54
414,003	1730,1
414,206	1987,84
414,409	2800,06
414,612	3678,33
414,815	4607,14
415,018	5093,63
415,221	5372,36
415,424	5244,52
415,627	4443,09
415,83	3594,52
416,033	2975,16
416,235	2537,77
416,438	2245,57
416,641	2015,53
416,844	2000,94
417,047	1988,24
417,25	2072,93
417,453	2282,74
417,655	2499,93
417,858	2907,94
418,061	3172,99
418,264	3548,03
418,467	4384,21
418,669	5304,88
418,872	6171,48
419,075	6474,32
419,278	6594,08
419,48	6368,59
419,683	5476,14
419,886	4108,87
420,089	3444,61
420,291	2723,62
420,494	2262,42
420,697	1934,13
420,899	1810,33
421,102	1555,51
421,305	1568,97
421,507	1455,52
421,71	1430,89
421,912	1418,55
422,115	1335,51
422,318	1390,9
422,52	1376,21
422,723	1378,26
422,925	1440,87
423,128	1462,68
423,33	1397,51
423,533	1450,86
423,735	1530,22
423,938	1632,31
424,14	1723,14
424,343	2012,15
424,545	2337,37
424,748	2536,49
424,95	2761,61
425,153	3076,33
425,355	3341,75
425,558	3578,24
425,76	3491,45
425,962	3580,95
426,165	3525,09
426,367	3571,89
426,57	3419,26
426,772	2935,17
426,974	2570,69
427,177	2130,32
427,379	1938,22
427,581	1898,85
427,784	1716,33
427,986	1625,75
428,188	1712,33
428,39	1810,28
428,593	2030,23
428,795	2359,08
428,997	2547,44
429,2	2424,05
429,402	2529,93
429,604	2248,03
429,806	2018,5
430,008	1910,11
430,211	1771,11
430,413	1657,86
430,615	1645,47
430,817	1625,96
431,019	1599,13
431,221	1672,09
431,423	1605,07
431,626	1773,87
431,828	1984
432,03	2292,62
432,232	2671,75
432,434	2867,34
432,636	2966,71
