Data from USB4F035431__4__14-01-27-391.txt Node

Date: Wed Feb 12 14:01:27 CET 2025
User: Versuch 234
Spectrometer: USB4F03543
Trigger mode: 4
Integration Time (sec): 1,000000E-1
Scans to average: 1
Electric dark correction enabled: true
Nonlinearity correction enabled: false
Boxcar width: 0
XAxis mode: Wavelengths
Number of Pixels in Spectrum: 3648
>>>>>Begin Spectral Data<<<<<
179,969	-131,07
180,181	-131,07
180,394	-131,07
180,606	-63,49
180,819	-186,37
181,031	-14,34
181,243	45,06
181,456	-71,68
181,668	51,2
181,88	-16,38
182,093	-14,34
182,305	-4,1
182,518	57,34
182,73	36,86
182,942	-12,29
183,155	-4,1
183,367	-53,25
183,579	14,34
183,791	94,21
184,004	20,48
184,216	-2,05
184,428	69,63
184,641	2,05
184,853	2,05
185,065	16,38
185,277	59,39
185,49	-6,14
185,702	-26,62
185,914	-10,24
186,126	45,06
186,338	112,64
186,551	112,64
186,763	18,43
186,975	12,29
187,187	49,15
187,399	8,19
187,612	20,48
187,824	2,05
188,036	10,24
188,248	65,54
188,46	36,86
188,672	-2,05
188,885	20,48
189,097	102,4
189,309	-28,67
189,521	-4,1
189,733	110,59
189,945	24,58
190,157	49,15
190,369	2,05
190,581	53,25
190,794	135,17
191,006	16,38
191,218	10,24
191,43	28,67
191,642	-55,3
191,854	36,86
192,066	159,74
192,278	81,92
192,49	-40,96
192,702	-38,91
192,914	28,67
193,126	36,86
193,338	53,25
193,55	71,68
193,762	65,54
193,974	-4,1
194,186	4,1
194,398	-14,34
194,61	53,25
194,822	81,92
195,034	47,1
195,246	75,77
195,457	20,48
195,669	122,88
195,881	-2,05
196,093	36,86
196,305	20,48
196,517	-4,1
196,729	43,01
196,941	-16,38
197,153	53,25
197,365	124,93
197,576	-10,24
197,788	16,38
198	59,39
198,212	135,17
198,424	126,97
198,636	53,25
198,847	79,87
199,059	20,48
199,271	-32,77
199,483	69,63
199,695	59,39
199,906	110,59
200,118	-75,77
200,33	137,21
200,542	356,35
200,753	51,2
200,965	96,25
201,177	12,29
201,389	32,77
201,6	26,62
201,812	57,34
202,024	61,44
202,235	-28,67
202,447	57,34
202,659	96,25
202,871	83,97
203,082	-8,19
203,294	-16,38
203,506	49,15
203,717	86,01
203,929	92,16
204,141	28,67
204,352	32,77
204,564	45,06
204,775	-30,72
204,987	12,29
205,199	110,59
205,41	2,05
205,622	86,01
205,833	12,29
206,045	36,86
206,257	20,48
206,468	-14,34
206,68	-12,29
206,891	14,34
207,103	24,58
207,314	40,96
207,526	55,3
207,737	-4,1
207,949	100,35
208,16	36,86
208,372	61,44
208,583	61,44
208,795	28,67
209,006	8,19
209,218	20,48
209,429	-16,38
209,641	24,58
209,852	86,01
210,064	32,77
210,275	-12,29
210,487	45,06
210,698	34,82
210,909	26,62
211,121	69,63
211,332	-10,24
211,544	51,2
211,755	51,2
211,966	53,25
212,178	26,62
212,389	110,59
212,6	-16,38
212,812	73,73
213,023	20,48
213,234	0
213,446	36,86
213,657	-6,14
213,868	94,21
214,08	110,59
214,291	34,82
214,502	-8,19
214,714	-24,58
214,925	24,58
215,136	-12,29
215,347	36,86
215,559	24,58
215,77	-20,48
215,981	112,64
216,192	4,1
216,404	26,62
216,615	51,2
216,826	98,3
217,037	-24,58
217,249	30,72
217,46	100,35
217,671	24,58
217,882	67,58
218,093	26,62
218,304	67,58
218,516	73,73
218,727	-14,34
218,938	51,2
219,149	147,45
219,36	92,16
219,571	-8,19
219,782	10,24
219,993	57,34
220,205	-32,77
220,416	98,3
220,627	-22,53
220,838	86,01
221,049	112,64
221,26	53,25
221,471	57,34
221,682	57,34
221,893	86,01
222,104	40,96
222,315	-18,43
222,526	18,43
222,737	53,25
222,948	-6,14
223,159	22,53
223,37	71,68
223,581	20,48
223,792	30,72
224,003	61,44
224,214	-32,77
224,425	94,21
224,636	-36,86
224,847	143,36
225,058	12,29
225,269	98,3
225,48	86,01
225,691	-55,3
225,902	65,54
226,112	12,29
226,323	2,05
226,534	-4,1
226,745	45,06
226,956	26,62
227,167	-12,29
227,378	24,58
227,589	51,2
227,799	122,88
228,01	61,44
228,221	-24,58
228,432	26,62
228,643	36,86
228,853	-36,86
229,064	-6,14
229,275	18,43
229,486	-28,67
229,697	28,67
229,907	10,24
230,118	83,97
230,329	-34,82
230,54	69,63
230,75	-20,48
230,961	122,88
231,172	32,77
231,383	-2,05
231,593	18,43
231,804	102,4
232,015	-6,14
232,225	67,58
232,436	-14,34
232,647	100,35
232,857	51,2
233,068	10,24
233,279	75,77
233,489	-24,58
233,7	86,01
233,91	2,05
234,121	51,2
234,332	-6,14
234,542	73,73
234,753	4,1
234,964	26,62
235,174	-32,77
235,385	61,44
235,595	43,01
235,806	131,07
236,016	28,67
236,227	57,34
236,437	55,3
236,648	65,54
236,858	90,11
237,069	4,1
237,279	53,25
237,49	12,29
237,7	45,06
237,911	59,39
238,121	10,24
238,332	24,58
238,542	55,3
238,753	43,01
238,963	-16,38
239,174	18,43
239,384	116,73
239,595	36,86
239,805	-6,14
240,015	69,63
240,226	69,63
240,436	4,1
240,647	43,01
240,857	32,77
241,067	-4,1
241,278	155,65
241,488	30,72
241,698	40,96
241,909	61,44
242,119	55,3
242,329	88,06
242,54	90,11
242,75	12,29
242,96	22,53
243,171	26,62
243,381	98,3
243,591	-63,49
243,801	12,29
244,012	102,4
244,222	6,14
244,432	-53,25
244,642	-20,48
244,853	40,96
245,063	24,58
245,273	53,25
245,483	8,19
245,694	4,1
245,904	94,21
246,114	61,44
246,324	32,77
246,534	45,06
246,744	-4,1
246,955	-16,38
247,165	73,73
247,375	151,55
247,585	16,38
247,795	45,06
248,005	40,96
248,215	100,35
248,425	61,44
248,636	180,22
248,846	65,54
249,056	12,29
249,266	12,29
249,476	59,39
249,686	59,39
249,896	57,34
250,106	61,44
250,316	67,58
250,526	133,12
250,736	18,43
250,946	151,55
251,156	67,58
251,366	8,19
251,576	165,89
251,786	73,73
251,996	24,58
252,206	30,72
252,416	18,43
252,626	2,05
252,836	-2,05
253,046	47,1
253,256	110,59
253,466	45,06
253,676	55,3
253,885	102,4
254,095	69,63
254,305	90,11
254,515	75,77
254,725	36,86
254,935	45,06
255,145	10,24
255,355	24,58
255,564	40,96
255,774	0
255,984	124,93
256,194	34,82
256,404	49,15
256,614	69,63
256,823	102,4
257,033	-4,1
257,243	67,58
257,453	98,3
257,662	36,86
257,872	40,96
258,082	40,96
258,292	-71,68
258,501	116,73
258,711	155,65
258,921	61,44
259,131	4,1
259,34	16,38
259,55	141,31
259,76	-8,19
259,969	65,54
260,179	45,06
260,389	90,11
260,598	86,01
260,808	26,62
261,018	73,73
261,227	94,21
261,437	-30,72
261,647	61,44
261,856	71,68
262,066	43,01
262,275	100,35
262,485	-4,1
262,694	71,68
262,904	24,58
263,114	59,39
263,323	38,91
263,533	0
263,742	51,2
263,952	24,58
264,161	14,34
264,371	8,19
264,58	100,35
264,79	112,64
264,999	24,58
265,209	65,54
265,418	55,3
265,628	28,67
265,837	51,2
266,047	47,1
266,256	57,34
266,466	22,53
266,675	75,77
266,884	106,49
267,094	67,58
267,303	86,01
267,513	69,63
267,722	86,01
267,931	34,82
268,141	61,44
268,35	28,67
268,559	90,11
268,769	12,29
268,978	-8,19
269,187	59,39
269,397	83,97
269,606	-24,58
269,815	12,29
270,025	0
270,234	55,3
270,443	34,82
270,653	69,63
270,862	79,87
271,071	116,73
271,28	57,34
271,49	110,59
271,699	-12,29
271,908	67,58
272,117	71,68
272,327	22,53
272,536	83,97
272,745	69,63
272,954	20,48
273,163	83,97
273,372	100,35
273,582	32,77
273,791	86,01
274	53,25
274,209	53,25
274,418	106,49
274,627	178,17
274,836	81,92
275,046	81,92
275,255	86,01
275,464	24,58
275,673	81,92
275,882	16,38
276,091	57,34
276,3	100,35
276,509	59,39
276,718	34,82
276,927	71,68
277,136	26,62
277,345	-12,29
277,554	94,21
277,763	92,16
277,972	30,72
278,181	79,87
278,39	2,05
278,599	34,82
278,808	106,49
279,017	114,69
279,226	16,38
279,435	38,91
279,644	110,59
279,853	122,88
280,062	139,26
280,271	28,67
280,48	116,73
280,688	69,63
280,897	114,69
281,106	20,48
281,315	57,34
281,524	94,21
281,733	36,86
281,942	86,01
282,151	45,06
282,359	65,54
282,568	24,58
282,777	55,3
282,986	102,4
283,195	145,41
283,403	90,11
283,612	45,06
283,821	12,29
284,03	24,58
284,238	53,25
284,447	69,63
284,656	49,15
284,865	65,54
285,073	83,97
285,282	102,4
285,491	51,2
285,699	10,24
285,908	24,58
286,117	120,83
286,325	69,63
286,534	102,4
286,743	86,01
286,951	-14,34
287,16	122,88
287,369	96,25
287,577	75,77
287,786	75,77
287,995	20,48
288,203	122,88
288,412	94,21
288,62	34,82
288,829	118,78
289,037	45,06
289,246	45,06
289,455	14,34
289,663	49,15
289,872	81,92
290,08	81,92
290,289	94,21
290,497	-36,86
290,706	-30,72
290,914	0
291,123	61,44
291,331	14,34
291,54	149,5
291,748	135,17
291,957	53,25
292,165	100,35
292,373	2,05
292,582	69,63
292,79	94,21
292,999	122,88
293,207	145,41
293,415	20,48
293,624	0
293,832	10,24
294,041	108,54
294,249	8,19
294,457	28,67
294,666	77,82
294,874	20,48
295,082	90,11
295,291	90,11
295,499	-36,86
295,707	69,63
295,915	81,92
296,124	90,11
296,332	59,39
296,54	69,63
296,749	38,91
296,957	75,77
297,165	-20,48
297,373	71,68
297,581	102,4
297,79	51,2
297,998	47,1
298,206	73,73
298,414	-10,24
298,622	40,96
298,831	98,3
299,039	75,77
299,247	122,88
299,455	77,82
299,663	69,63
299,871	69,63
300,08	67,58
300,288	90,11
300,496	102,4
300,704	102,4
300,912	69,63
301,12	69,63
301,328	83,97
301,536	120,83
301,744	63,49
301,952	149,5
302,16	69,63
302,368	110,59
302,576	77,82
302,784	102,4
302,992	26,62
303,2	73,73
303,408	106,49
303,616	26,62
303,824	129,02
304,032	165,89
304,24	172,03
304,448	149,5
304,656	110,59
304,864	233,47
305,072	124,93
305,28	155,65
305,488	165,89
305,696	98,3
305,904	180,22
306,111	102,4
306,319	161,79
306,527	192,51
306,735	172,03
306,943	270,33
307,151	176,13
307,359	247,8
307,566	305,15
307,774	276,48
307,982	217,08
308,19	241,66
308,398	229,37
308,605	249,85
308,813	262,14
309,021	270,33
309,229	346,11
309,436	241,66
309,644	411,64
309,852	421,88
310,06	436,22
310,267	446,46
310,475	442,36
310,683	503,8
310,89	552,95
311,098	559,1
311,306	493,56
311,513	608,25
311,721	532,47
311,929	663,54
312,136	634,87
312,344	700,41
312,552	708,6
312,759	602,1
312,967	802,8
313,174	937,97
313,382	892,91
313,589	878,58
313,797	956,4
314,005	923,63
314,212	1118,19
314,42	837,62
314,627	962,55
314,835	958,45
315,042	1073,14
315,25	1075,18
315,457	1032,18
315,665	1034,22
315,872	1232,88
316,08	1310,7
316,287	1245,16
316,495	1697,77
316,702	1499,11
316,909	1531,88
317,117	1615,85
317,324	1632,23
317,532	1679,33
317,739	1660,9
317,946	1630,18
318,154	1675,24
318,361	1642,47
318,569	1822,69
318,776	1839,08
318,983	1826,79
319,191	1929,19
319,398	1912,8
319,605	2047,97
319,813	2099,17
320,02	2211,81
320,227	2383,84
320,434	2332,64
320,642	2580,44
320,849	2408,41
321,056	2357,21
321,264	2453,47
321,471	2439,13
321,678	2551,77
321,885	2473,95
322,092	2535,39
322,3	2445,27
322,507	2461,66
322,714	2430,94
322,921	2445,27
323,128	2598,87
323,336	2752,47
323,543	2916,31
323,75	2813,91
323,957	2805,72
324,164	3262,41
324,371	3205,07
324,578	3291,09
324,786	3272,65
324,993	3614,66
325,2	3694,54
325,407	3837,89
325,614	3829,7
325,821	4263,87
326,028	4378,56
326,235	4497,34
326,442	4530,11
326,649	4466,62
326,856	4425,66
327,063	4630,46
327,27	4157,38
327,477	4255,68
327,684	4194,24
327,891	4267,97
328,098	4356,03
328,305	4560,83
328,512	4370,37
328,719	4913,08
328,926	5156,79
329,133	5296,05
329,34	5427,12
329,546	5517,23
329,753	5373,87
329,96	5310,38
330,167	4968,37
330,374	4966,32
330,581	5029,81
330,788	4892,6
330,995	4960,18
331,201	5009,33
331,408	4693,94
331,615	5105,59
331,822	4886,45
332,029	4968,37
332,235	5214,13
332,442	5189,55
332,649	5115,83
332,856	5044,15
333,062	4917,17
333,269	5124,02
333,476	4923,32
333,683	4980,66
333,889	5050,29
334,096	5285,81
334,303	5119,92
334,509	5435,31
334,716	5337,01
334,923	5431,21
335,129	5314,48
335,336	5320,62
335,543	4958,13
335,749	5064,63
335,956	4804,53
336,163	4698,04
336,369	4720,57
336,576	4796,34
336,782	4675,51
336,989	4853,69
337,196	4861,88
337,402	5142,45
337,609	5128,11
337,815	5281,71
338,022	5474,22
338,228	5466,03
338,435	5631,91
338,641	5717,93
338,848	5582,76
339,054	5820,33
339,261	5793,7
339,467	5842,85
339,674	6018,98
339,88	6049,7
340,087	6004,64
340,293	5996,45
340,5	6025,12
340,706	5762,98
340,912	5719,98
341,119	6025,12
341,325	5902,25
341,532	5955,49
341,738	6000,55
341,944	6205,35
342,151	6184,87
342,357	6107,04
342,563	6211,49
342,77	6178,72
342,976	5967,78
343,182	6049,7
343,389	5558,19
343,595	5361,58
343,801	5179,31
344,007	5205,94
344,214	5242,8
344,42	5437,36
344,626	5621,67
344,832	5799,85
345,039	5711,78
345,245	5910,44
345,451	5775,27
345,657	6021,03
345,864	5832,61
346,07	6055,84
346,276	5965,73
346,482	6264,74
346,688	5949,35
346,894	5758,89
347,1	5857,19
347,307	6057,89
347,513	5928,87
347,719	6111,14
347,925	5949,35
348,131	6029,22
348,337	5980,07
348,543	6051,75
348,749	5838,76
348,955	6197,15
349,161	6027,17
349,367	6301,6
349,573	6614,94
349,779	6561,69
349,985	6729,63
350,191	6858,65
350,397	6694,81
350,603	6911,89
350,809	6610,84
351,015	6895,51
351,221	6481,82
351,427	6735,77
351,633	6588,32
351,839	6436,77
352,045	6602,65
352,251	6393,76
352,457	6422,43
352,663	6680,47
352,869	6729,63
353,075	7053,2
353,28	7040,92
353,486	7622,54
353,692	7333,78
353,898	7589,77
354,104	7505,81
354,31	7528,33
354,515	7489,42
354,721	7651,21
354,927	7305,1
355,133	7401,36
355,339	7212,95
355,544	7192,47
355,75	6612,89
355,956	6868,89
356,162	6246,3
356,367	6164,39
356,573	6066,08
356,779	6018,98
356,984	5783,46
357,19	5658,54
357,396	5541,8
357,602	5642,15
357,807	5214,13
358,013	5445,55
358,218	5511,08
358,424	5758,89
358,63	5908,39
358,835	6633,37
359,041	6705,05
359,247	7186,32
359,452	7196,56
359,658	7233,43
359,863	6973,33
360,069	6885,27
360,274	6991,77
360,48	6870,94
360,685	6647,71
360,891	6643,61
361,097	6543,26
361,302	6836,12
361,508	6850,46
361,713	6901,65
361,918	7069,59
362,124	7106,45
362,329	7528,33
362,535	7499,66
362,74	7319,44
362,946	7554,96
363,151	7602,06
363,357	7505,81
363,562	7729,03
363,767	7679,88
363,973	7751,56
364,178	7626,64
364,383	7661,45
364,589	8294,27
364,794	8290,18
365	8873,85
365,205	9133,94
365,41	9072,5
365,615	9502,57
365,821	9242,48
366,026	9461,62
366,231	9314,16
366,437	9275,25
366,642	9219,96
366,847	9191,28
367,052	9027,45
367,258	9097,08
367,463	8994,68
367,668	8619,9
367,873	8865,66
368,078	8726,39
368,284	9109,36
368,489	8750,97
368,694	9424,75
368,899	9355,12
369,104	9561,97
369,309	9404,27
369,515	9547,63
369,72	9383,79
369,925	9109,36
370,13	9148,28
370,335	9150,32
370,54	8996,73
370,745	9244,53
370,95	8912,76
371,155	8988,53
371,36	8851,32
371,565	8918,9
371,77	8576,89
371,975	8482,69
372,18	8339,33
372,385	8079,24
372,59	7597,96
372,795	7333,78
373	7397,26
373,205	7286,67
373,41	7290,77
373,615	7487,37
373,82	6913,94
374,025	7190,42
374,23	7151,51
374,435	7499,66
374,64	7544,72
374,845	7989,13
375,05	8286,08
375,254	8200,07
375,459	8333,18
375,664	8441,73
375,869	8159,11
376,074	8746,87
376,279	8693,63
376,483	8892,28
376,688	9088,89
376,893	9428,85
377,098	9877,35
377,303	9803,63
377,507	10078,05
377,712	10354,53
377,917	9994,09
378,122	9811,82
378,326	9232,24
378,531	8953,72
378,736	8791,93
378,94	8589,18
379,145	8423,3
379,35	8515,45
379,554	8734,59
379,759	9015,16
379,964	8806,27
380,168	9056,12
380,373	8734,59
380,578	8873,85
380,782	8515,45
380,987	8103,81
381,191	7694,22
381,396	7378,83
381,601	7208,85
381,805	6872,98
382,01	6055,84
382,214	6023,08
382,419	5666,73
382,623	5509,04
382,828	5582,76
383,032	5689,26
383,237	5762,98
383,441	6137,76
383,646	6432,67
383,85	6969,24
384,055	7262,1
384,259	7628,68
384,464	7823,24
384,668	7612,3
384,872	7331,73
385,077	7647,12
385,281	7507,85
385,486	7563,15
385,69	7679,88
385,894	7954,31
386,099	7634,83
386,303	7741,32
386,507	7765,9
386,712	7720,84
386,916	7714,7
387,12	7524,24
387,325	7755,66
387,529	7634,83
387,733	7477,13
387,937	7905,16
388,142	7659,4
388,346	8251,27
388,55	8167,3
388,754	8832,89
388,959	8685,44
389,163	9107,32
389,367	9428,85
389,571	9391,98
389,775	9267,06
389,98	9815,91
390,184	9604,97
390,388	10354,53
390,592	9914,22
390,796	10030,95
391	9856,87
391,204	9678,7
391,409	9322,35
391,613	8986,49
391,817	8365,95
392,021	7759,75
392,225	6920,09
392,429	6066,08
392,633	5670,83
392,837	5574,57
393,041	5533,61
393,245	6143,91
393,449	6444,96
393,653	7085,97
393,857	7516,05
394,061	8593,28
394,265	8791,93
394,469	9523,05
394,673	9486,19
394,877	9629,55
395,081	9883,5
395,285	9125,75
395,489	8122,24
395,693	7913,35
395,896	7178,13
396,1	6619,03
396,304	6901,65
396,508	6926,23
396,712	7081,88
396,916	7858,06
397,12	9013,11
397,323	9785,19
397,527	10465,12
397,731	11380,56
397,935	11214,68
398,139	12076,87
398,342	12672,83
398,546	12398,4
398,75	12742,46
398,954	13315,89
399,157	12732,22
399,361	12920,63
399,565	12996,41
399,769	13270,84
399,972	13418,29
400,176	13831,98
400,38	13545,27
400,583	13872,94
400,787	14282,53
400,991	14020,39
401,194	13745,97
401,398	14458,66
401,601	14018,35
401,805	13975,34
402,009	14587,68
402,212	13764,4
402,416	14331,69
402,619	13965,1
402,823	13879,08
403,026	13860,65
403,23	13512,5
403,433	13995,82
403,637	13414,2
403,841	13717,29
404,044	13719,34
404,247	14223,14
404,451	13883,18
404,654	13543,22
404,858	13815,6
405,061	13698,86
405,265	13639,47
405,468	13772,59
405,672	13463,35
405,875	12898,11
406,078	13715,25
406,282	13758,25
406,485	13369,14
406,689	14055,21
406,892	14087,98
407,095	13377,33
407,299	13719,34
407,502	13987,63
407,705	14585,63
407,909	14890,78
408,112	14993,18
408,315	15470,36
408,518	15191,83
408,722	14233,38
408,925	14083,88
409,128	14325,54
409,331	14012,2
409,535	13899,56
409,738	14040,87
409,941	14247,72
410,144	13946,67
410,347	15099,67
410,551	14782,24
410,754	15396,63
410,957	15425,3
411,16	15738,64
411,363	15425,3
411,566	15763,22
411,769	15886,09
411,973	15761,17
412,176	15439,64
412,379	16088,84
412,582	15429,4
412,785	15421,2
412,988	15972,11
413,191	15281,94
413,394	14950,17
413,597	15472,4
413,8	15513,36
414,003	15732,5
414,206	15179,54
414,409	16043,79
414,612	15290,13
414,815	15562,51
415,018	15324,95
415,221	15795,98
415,424	15974,16
415,627	15914,77
415,83	15894,29
416,033	15476,5
416,235	16242,44
416,438	15935,24
416,641	15007,51
416,844	15267,61
417,047	15175,45
417,25	14864,16
417,453	15537,94
417,655	15146,78
417,858	15150,87
418,061	15056,67
418,264	14774,05
418,467	15394,58
418,669	15077,15
418,872	15052,57
419,075	15107,87
419,278	14941,98
419,48	15118,11
419,683	15566,61
419,886	15548,18
420,089	16723,71
420,291	15695,63
420,494	16471,81
420,697	15830,8
420,899	15867,66
421,102	14778,14
421,305	15609,62
421,507	15191,83
421,71	15347,48
421,912	15124,25
422,115	15378,2
422,318	14692,13
422,52	15093,53
422,723	15324,95
422,925	15509,27
423,128	15191,83
423,33	14946,08
423,533	14896,92
423,735	15269,65
423,938	15290,13
424,14	15138,58
424,343	14755,61
424,545	15402,77
424,748	15009,56
424,95	14931,74
425,153	15607,57
425,355	15187,74
425,558	16008,97
425,76	15044,38
425,962	14425,89
426,165	14348,07
426,367	15322,9
426,57	15410,96
426,772	14763,81
426,974	15304,47
427,177	14405,41
427,379	14923,55
427,581	14774,05
427,784	15165,21
427,986	13608,75
428,188	14405,41
428,39	14782,24
428,593	13807,41
428,795	14161,7
428,997	13250,36
429,2	12375,88
429,402	12584,77
429,604	12095,3
429,806	11786,06
430,008	12001,1
430,211	12595,01
430,413	13201,21
430,615	13664,05
430,817	14798,62
431,019	15429,4
431,221	15501,08
431,423	14851,87
431,626	15507,22
431,828	15572,75
432,03	15877,9
432,232	15988,49
432,434	16678,66
432,636	16592,64
432,838	15574,8
433,04	15714,06
433,242	15623,95
433,444	15114,01
433,646	15507,22
433,848	15990,54
434,05	16518,92
