Data from USB4F035431__6__14-12-15-628.txt Node

Date: Wed Feb 12 14:12:15 CET 2025
User: Versuch 234
Spectrometer: USB4F03543
Trigger mode: 4
Integration Time (sec): 1,000000E-1
Scans to average: 1
Electric dark correction enabled: true
Nonlinearity correction enabled: false
Boxcar width: 0
XAxis mode: Wavelengths
Number of Pixels in Spectrum: 3648
>>>>>Begin Spectral Data<<<<<
179,969	-144,89
180,181	-144,89
180,394	-144,89
180,606	-161,28
180,819	-218,62
181,031	33,28
181,243	104,96
181,456	-32,26
181,668	39,42
181,88	-17,92
182,093	-3,58
182,305	-34,3
182,518	-1,54
182,73	45,57
182,942	-34,3
183,155	-32,26
183,367	-67,07
183,579	10,75
183,791	-15,87
184,004	-54,78
184,216	-44,54
184,428	-79,36
184,641	-9,73
184,853	-50,69
185,065	-77,31
185,277	51,71
185,49	-7,68
185,702	18,94
185,914	-81,41
186,126	-5,63
186,338	39,42
186,551	-15,87
186,763	45,57
186,975	-71,17
187,187	14,85
187,399	-46,59
187,612	-34,3
187,824	-1,54
188,036	27,14
188,248	-7,68
188,46	-11,78
188,672	8,7
188,885	-22,02
189,097	-17,92
189,309	-52,74
189,521	8,7
189,733	4,61
189,945	4,61
190,157	33,28
190,369	-38,4
190,581	-7,68
190,794	12,8
191,006	-38,4
191,218	16,9
191,43	8,7
191,642	-87,55
191,854	27,14
192,066	76,29
192,278	16,9
192,49	-67,07
192,702	35,33
192,914	-71,17
193,126	14,85
193,338	-77,31
193,55	-15,87
193,762	57,86
193,974	-165,37
194,186	-71,17
194,398	-83,45
194,61	-40,45
194,822	33,28
195,034	20,99
195,246	25,09
195,457	6,66
195,669	49,66
195,881	0,51
196,093	-67,07
196,305	37,38
196,517	-83,45
196,729	27,14
196,941	-38,4
197,153	70,14
197,365	125,44
197,576	-15,87
197,788	-67,07
198	84,48
198,212	-11,78
198,424	27,14
198,636	-81,41
198,847	-50,69
199,059	-19,97
199,271	-15,87
199,483	31,23
199,695	-73,21
199,906	27,14
200,118	-28,16
200,33	0,51
200,542	168,45
200,753	-42,5
200,965	-24,06
201,177	-32,26
201,389	-1,54
201,6	-75,26
201,812	-22,02
202,024	0,51
202,235	-75,26
202,447	2,56
202,659	45,57
202,871	-22,02
203,082	-60,93
203,294	-50,69
203,506	8,7
203,717	-24,06
203,929	27,14
204,141	-54,78
204,352	66,05
204,564	-40,45
204,775	43,52
204,987	72,19
205,199	43,52
205,41	-65,02
205,622	96,77
205,833	-3,58
206,045	16,9
206,257	-38,4
206,468	-93,69
206,68	-75,26
206,891	-56,83
207,103	-32,26
207,314	-1,54
207,526	-34,3
207,737	-46,59
207,949	-32,26
208,16	-15,87
208,372	47,62
208,583	29,18
208,795	-60,93
209,006	53,76
209,218	-7,68
209,429	-30,21
209,641	-56,83
209,852	-13,82
210,064	41,47
210,275	-42,5
210,487	18,94
210,698	47,62
210,909	-17,92
211,121	-9,73
211,332	41,47
211,544	-9,73
211,755	35,33
211,966	98,81
212,178	-5,63
212,389	123,39
212,6	6,66
212,812	27,14
213,023	6,66
213,234	12,8
213,446	43,52
213,657	-3,58
213,868	43,52
214,08	37,38
214,291	6,66
214,502	14,85
214,714	-52,74
214,925	2,56
215,136	25,09
215,347	-54,78
215,559	-77,31
215,77	-138,75
215,981	2,56
216,192	-110,08
216,404	18,94
216,615	-26,11
216,826	96,77
217,037	-1,54
217,249	-13,82
217,46	41,47
217,671	-48,64
217,882	-79,36
218,093	-62,98
218,304	-58,88
218,516	-22,02
218,727	-120,32
218,938	-24,06
219,149	76,29
219,36	49,66
219,571	8,7
219,782	-13,82
219,993	68,09
220,205	-71,17
220,416	115,2
220,627	-9,73
220,838	-13,82
221,049	139,77
221,26	29,18
221,471	-38,4
221,682	47,62
221,893	31,23
222,104	-69,12
222,315	-40,45
222,526	-58,88
222,737	-17,92
222,948	-3,58
223,159	-108,03
223,37	10,75
223,581	-22,02
223,792	-11,78
224,003	-24,06
224,214	-46,59
224,425	55,81
224,636	35,33
224,847	33,28
225,058	10,75
225,269	109,05
225,48	35,33
225,691	16,9
225,902	57,86
226,112	-44,54
226,323	-69,12
226,534	-56,83
226,745	-1,54
226,956	-56,83
227,167	-34,3
227,378	37,38
227,589	-91,65
227,799	51,71
228,01	10,75
228,221	-67,07
228,432	-22,02
228,643	41,47
228,853	-13,82
229,064	-32,26
229,275	6,66
229,486	18,94
229,697	25,09
229,907	-73,21
230,118	41,47
230,329	37,38
230,54	-97,79
230,75	-28,16
230,961	8,7
231,172	-50,69
231,383	-30,21
231,593	-46,59
231,804	23,04
232,015	-28,16
232,225	8,7
232,436	-30,21
232,647	35,33
232,857	41,47
233,068	-71,17
233,279	27,14
233,489	27,14
233,7	4,61
233,91	-67,07
234,121	-9,73
234,332	-13,82
234,542	51,71
234,753	14,85
234,964	-15,87
235,174	-67,07
235,385	66,05
235,595	23,04
235,806	8,7
236,016	10,75
236,227	-38,4
236,437	-22,02
236,648	-38,4
236,858	8,7
237,069	-75,26
237,279	-81,41
237,49	-54,78
237,7	72,19
237,911	74,24
238,121	-22,02
238,332	-48,64
238,542	-19,97
238,753	14,85
238,963	-46,59
239,174	4,61
239,384	35,33
239,595	-15,87
239,805	-91,65
240,015	8,7
240,226	59,9
240,436	-7,68
240,647	-17,92
240,857	-42,5
241,067	4,61
241,278	150,01
241,488	-15,87
241,698	20,99
241,909	-24,06
242,119	16,9
242,329	27,14
242,54	27,14
242,75	-32,26
242,96	-38,4
243,171	2,56
243,381	-13,82
243,591	-40,45
243,801	47,62
244,012	29,18
244,222	6,66
244,432	-99,84
244,642	-46,59
244,853	14,85
245,063	-38,4
245,273	16,9
245,483	37,38
245,694	-24,06
245,904	8,7
246,114	27,14
246,324	-42,5
246,534	-24,06
246,744	29,18
246,955	-91,65
247,165	10,75
247,375	27,14
247,585	-26,11
247,795	-30,21
248,005	-58,88
248,215	-5,63
248,425	43,52
248,636	57,86
248,846	-5,63
249,056	2,56
249,266	-87,55
249,476	-17,92
249,686	-40,45
249,896	-99,84
250,106	-5,63
250,316	-22,02
250,526	100,86
250,736	-19,97
250,946	98,81
251,156	14,85
251,366	64
251,576	14,85
251,786	31,23
251,996	-17,92
252,206	-5,63
252,416	-5,63
252,626	-95,74
252,836	-34,3
253,046	23,04
253,256	57,86
253,466	-7,68
253,676	2,56
253,885	16,9
254,095	31,23
254,305	27,14
254,515	-5,63
254,725	6,66
254,935	-79,36
255,145	64
255,355	107,01
255,564	2,56
255,774	55,81
255,984	76,29
256,194	-38,4
256,404	-32,26
256,614	49,66
256,823	2,56
257,033	-34,3
257,243	-46,59
257,453	-34,3
257,662	-73,21
257,872	18,94
258,082	-7,68
258,292	-62,98
258,501	41,47
258,711	115,2
258,921	-3,58
259,131	-44,54
259,34	72,19
259,55	-15,87
259,76	-28,16
259,969	-7,68
260,179	14,85
260,389	-28,16
260,598	51,71
260,808	-1,54
261,018	-38,4
261,227	49,66
261,437	-13,82
261,647	-46,59
261,856	-19,97
262,066	41,47
262,275	39,42
262,485	-83,45
262,694	-15,87
262,904	8,7
263,114	-5,63
263,323	-114,17
263,533	47,62
263,742	-48,64
263,952	2,56
264,161	-34,3
264,371	-22,02
264,58	8,7
264,79	-71,17
264,999	-1,54
265,209	23,04
265,418	33,28
265,628	16,9
265,837	-24,06
266,047	-69,12
266,256	59,9
266,466	23,04
266,675	0,51
266,884	-73,21
267,094	10,75
267,303	-1,54
267,513	39,42
267,722	154,11
267,931	-40,45
268,141	-15,87
268,35	-50,69
268,559	49,66
268,769	-30,21
268,978	-54,78
269,187	-11,78
269,397	-13,82
269,606	-87,55
269,815	-30,21
270,025	-40,45
270,234	41,47
270,443	-30,21
270,653	23,04
270,862	-42,5
271,071	59,9
271,28	-46,59
271,49	72,19
271,699	-99,84
271,908	55,81
272,117	-46,59
272,327	-15,87
272,536	-7,68
272,745	23,04
272,954	-62,98
273,163	6,66
273,372	4,61
273,582	-118,27
273,791	-32,26
274	-13,82
274,209	45,57
274,418	2,56
274,627	51,71
274,836	-17,92
275,046	10,75
275,255	-50,69
275,464	-1,54
275,673	-73,21
275,882	29,18
276,091	25,09
276,3	33,28
276,509	10,75
276,718	18,94
276,927	-17,92
277,136	76,29
277,345	-36,35
277,554	-81,41
277,763	107,01
277,972	-13,82
278,181	23,04
278,39	-13,82
278,599	-58,88
278,808	-30,21
279,017	70,14
279,226	-73,21
279,435	2,56
279,644	-30,21
279,853	0,51
280,062	-9,73
280,271	-124,41
280,48	-36,35
280,688	-73,21
280,897	47,62
281,106	-52,74
281,315	-52,74
281,524	-13,82
281,733	23,04
281,942	43,52
282,151	-83,45
282,359	-17,92
282,568	-62,98
282,777	16,9
282,986	27,14
283,195	-11,78
283,403	18,94
283,612	-13,82
283,821	2,56
284,03	-77,31
284,238	-56,83
284,447	57,86
284,656	-42,5
284,865	25,09
285,073	6,66
285,282	92,67
285,491	-50,69
285,699	12,8
285,908	-30,21
286,117	10,75
286,325	2,56
286,534	133,63
286,743	-62,98
286,951	18,94
287,16	16,9
287,369	8,7
287,577	-9,73
287,786	-13,82
287,995	-40,45
288,203	-34,3
288,412	33,28
288,62	2,56
288,829	-24,06
289,037	-44,54
289,246	-69,12
289,455	-38,4
289,663	49,66
289,872	143,87
290,08	6,66
290,289	27,14
290,497	-65,02
290,706	31,23
290,914	-9,73
291,123	-71,17
291,331	-38,4
291,54	10,75
291,748	80,38
291,957	0,51
292,165	6,66
292,373	-38,4
292,582	-24,06
292,79	-52,74
292,999	25,09
293,207	23,04
293,415	-32,26
293,624	-50,69
293,832	-30,21
294,041	-13,82
294,249	-73,21
294,457	6,66
294,666	0,51
294,874	-153,09
295,082	-38,4
295,291	51,71
295,499	-75,26
295,707	-50,69
295,915	-40,45
296,124	23,04
296,332	59,9
296,54	-1,54
296,749	43,52
296,957	16,9
297,165	-9,73
297,373	-48,64
297,581	-22,02
297,79	-50,69
297,998	-34,3
298,206	-46,59
298,414	-7,68
298,622	-30,21
298,831	12,8
299,039	-65,02
299,247	25,09
299,455	-30,21
299,663	35,33
299,871	-5,63
300,08	-38,4
300,288	-5,63
300,496	-22,02
300,704	-5,63
300,912	-62,98
301,12	16,9
301,328	-38,4
301,536	-73,21
301,744	-22,02
301,952	49,66
302,16	-83,45
302,368	6,66
302,576	6,66
302,784	78,33
302,992	-36,35
303,2	2,56
303,408	-38,4
303,616	-26,11
303,824	80,38
304,032	49,66
304,24	109,05
304,448	-71,17
304,656	-54,78
304,864	113,15
305,072	-26,11
305,28	31,23
305,488	-13,82
305,696	-50,69
305,904	-24,06
306,111	-134,65
306,319	-22,02
306,527	-5,63
306,735	31,23
306,943	45,57
307,151	-50,69
307,359	-50,69
307,566	14,85
307,774	84,48
307,982	-46,59
308,19	-1,54
308,398	-24,06
308,605	-26,11
308,813	6,66
309,021	18,94
309,229	23,04
309,436	-46,59
309,644	20,99
309,852	35,33
310,06	113,15
310,267	-79,36
310,475	-13,82
310,683	-26,11
310,89	10,75
311,098	59,9
311,306	-32,26
311,513	43,52
311,721	-71,17
311,929	51,71
312,136	2,56
312,344	14,85
312,552	43,52
312,759	-24,06
312,967	61,95
313,174	-7,68
313,382	-15,87
313,589	-34,3
313,797	-1,54
314,005	-54,78
314,212	-46,59
314,42	8,7
314,627	-103,93
314,835	25,09
315,042	-75,26
315,25	-120,32
315,457	-144,89
315,665	-83,45
315,872	51,71
316,08	61,95
316,287	-46,59
316,495	240,12
316,702	10,75
316,909	-7,68
317,117	-19,97
317,324	-15,87
317,532	98,81
317,739	-42,5
317,946	2,56
318,154	-54,78
318,361	-17,92
318,569	18,94
318,776	-17,92
318,983	-83,45
319,191	12,8
319,398	-13,82
319,605	-7,68
319,813	27,14
320,02	-103,93
320,227	-15,87
320,434	2,56
320,642	-26,11
320,849	-62,98
321,056	43,52
321,264	31,23
321,471	10,75
321,678	59,9
321,885	-24,06
322,092	2,56
322,3	-48,64
322,507	-46,59
322,714	-1,54
322,921	-34,3
323,128	-75,26
323,336	0,51
323,543	25,09
323,75	-7,68
323,957	6,66
324,164	84,48
324,371	43,52
324,578	-97,79
324,786	70,14
324,993	-1,54
325,2	53,76
325,407	-108,03
325,614	16,9
325,821	59,9
326,028	109,05
326,235	14,85
326,442	-19,97
326,649	8,7
326,856	-24,06
327,063	-103,93
327,27	-30,21
327,477	33,28
327,684	-79,36
327,891	-30,21
328,098	-54,78
328,305	51,71
328,512	-56,83
328,719	12,8
328,926	43,52
329,133	-77,31
329,34	51,71
329,546	-30,21
329,753	-30,21
329,96	18,94
330,167	27,14
330,374	-26,11
330,581	57,86
330,788	-85,5
330,995	-13,82
331,201	-5,63
331,408	-48,64
331,615	-24,06
331,822	27,14
332,029	-79,36
332,235	-40,45
332,442	-48,64
332,649	-58,88
332,856	-71,17
333,062	-32,26
333,269	-26,11
333,476	4,61
333,683	-77,31
333,889	8,7
334,096	-22,02
334,303	72,19
334,509	-38,4
334,716	43,52
334,923	47,62
335,129	-32,26
335,336	-1,54
335,543	-54,78
335,749	-81,41
335,956	51,71
336,163	-95,74
336,369	18,94
336,576	-7,68
336,782	61,95
336,989	-73,21
337,196	66,05
337,402	-56,83
337,609	-58,88
337,815	-24,06
338,022	12,8
338,228	-1,54
338,435	115,2
338,641	-11,78
338,848	47,62
339,054	29,18
339,261	-46,59
339,467	-42,5
339,674	100,86
339,88	-50,69
340,087	-73,21
340,293	-11,78
340,5	-7,68
340,706	14,85
340,912	-42,5
341,119	-5,63
341,325	35,33
341,532	-62,98
341,738	-60,93
341,944	27,14
342,151	-48,64
342,357	-40,45
342,563	-38,4
342,77	-62,98
342,976	-91,65
343,182	100,86
343,389	35,33
343,595	0,51
343,801	-30,21
344,007	18,94
344,214	-112,13
344,42	-22,02
344,626	23,04
344,832	-50,69
345,039	51,71
345,245	20,99
345,451	-15,87
345,657	59,9
345,864	-134,65
346,07	-56,83
346,276	-5,63
346,482	64
346,688	20,99
346,894	-58,88
347,1	10,75
347,307	-28,16
347,513	45,57
347,719	-83,45
347,925	-22,02
348,131	-79,36
348,337	84,48
348,543	-17,92
348,749	-50,69
348,955	90,62
349,161	-38,4
349,367	41,47
349,573	43,52
349,779	43,52
349,985	-46,59
350,191	-26,11
350,397	-30,21
350,603	-7,68
350,809	-13,82
351,015	6,66
351,221	-17,92
351,427	-38,4
351,633	2,56
351,839	41,47
352,045	2,56
352,251	57,86
352,457	4,61
352,663	14,85
352,869	39,42
353,075	-22,02
353,28	-30,21
353,486	-22,02
353,692	-7,68
353,898	-54,78
354,104	-17,92
354,31	-5,63
354,515	-128,51
354,721	10,75
354,927	-58,88
355,133	14,85
355,339	-75,26
355,544	-13,82
355,75	-26,11
355,956	33,28
356,162	10,75
356,367	-97,79
356,573	-17,92
356,779	-44,54
356,984	47,62
357,19	8,7
357,396	-13,82
357,602	33,28
357,807	-38,4
358,013	-24,06
358,218	27,14
358,424	-48,64
358,63	-101,89
358,835	23,04
359,041	-54,78
359,247	27,14
359,452	-36,35
359,658	-38,4
359,863	-52,74
360,069	76,29
360,274	47,62
360,48	31,23
360,685	35,33
360,891	31,23
361,097	-54,78
361,302	8,7
361,508	53,76
361,713	-56,83
361,918	104,96
362,124	-128,51
362,329	18,94
362,535	-26,11
362,74	-34,3
362,946	-9,73
363,151	18,94
363,357	-15,87
363,562	-52,74
363,767	-67,07
363,973	76,29
364,178	-122,37
364,383	6,66
364,589	39,42
364,794	-17,92
365	20,99
365,205	-5,63
365,41	-62,98
365,615	47,62
365,821	10,75
366,026	27,14
366,231	0,51
366,437	12,8
366,642	-112,13
366,847	92,67
367,052	59,9
367,258	-30,21
367,463	-22,02
367,668	-50,69
367,873	43,52
368,078	86,53
368,284	-24,06
368,489	-26,11
368,694	-11,78
368,899	-9,73
369,104	-54,78
369,309	25,09
369,515	-13,82
369,72	90,62
369,925	-3,58
370,13	-5,63
370,335	23,04
370,54	2,56
370,745	20,99
370,95	-22,02
371,155	49,66
371,36	53,76
371,565	8,7
371,77	-9,73
371,975	-1,54
372,18	90,62
372,385	115,2
372,59	82,43
372,795	-11,78
373	-38,4
373,205	72,19
373,41	43,52
373,615	-24,06
373,82	-75,26
374,025	-79,36
374,23	27,14
374,435	-30,21
374,64	-38,4
374,845	-52,74
375,05	10,75
375,254	-26,11
375,459	27,14
375,664	0,51
375,869	-30,21
376,074	-7,68
376,279	43,52
376,483	6,66
376,688	12,8
376,893	59,9
377,098	-5,63
377,303	6,66
377,507	-46,59
377,712	2,56
377,917	-17,92
378,122	-22,02
378,326	-15,87
378,531	-13,82
378,736	8,7
378,94	-73,21
379,145	18,94
379,35	16,9
379,554	47,62
379,759	47,62
379,964	51,71
380,168	47,62
380,373	-5,63
380,578	88,57
380,782	68,09
380,987	39,42
381,191	-13,82
381,396	14,85
381,601	66,05
381,805	-40,45
382,01	86,53
382,214	92,67
382,419	25,09
382,623	20,99
382,828	-28,16
383,032	59,9
383,237	-103,93
383,441	-38,4
383,646	43,52
383,85	6,66
384,055	37,38
384,259	-62,98
384,464	-81,41
384,668	-95,74
384,872	-5,63
385,077	27,14
385,281	18,94
385,486	-11,78
385,69	49,66
385,894	35,33
386,099	31,23
386,303	-15,87
386,507	129,53
386,712	14,85
386,916	43,52
387,12	-38,4
387,325	88,57
387,529	39,42
387,733	31,23
387,937	25,09
388,142	-7,68
388,346	-38,4
388,55	107,01
388,754	39,42
388,959	59,9
389,163	12,8
389,367	51,71
389,571	8,7
389,775	90,62
389,98	74,24
390,184	41,47
390,388	-52,74
390,592	-34,3
390,796	68,09
391	-46,59
391,204	10,75
391,409	-44,54
391,613	39,42
391,817	-17,92
392,021	59,9
392,225	29,18
392,429	10,75
392,633	-1,54
392,837	2,56
393,041	10,75
393,245	68,09
393,449	-11,78
393,653	-32,26
393,857	55,81
394,061	23,04
394,265	31,23
394,469	86,53
394,673	35,33
394,877	109,05
395,081	154,11
395,285	98,81
395,489	61,95
395,693	82,43
395,896	125,44
396,1	94,72
396,304	59,9
396,508	33,28
396,712	51,71
396,916	-11,78
397,12	107,01
397,323	64
397,527	201,21
397,731	176,64
397,935	150,01
398,139	125,44
398,342	115,2
398,546	82,43
398,75	107,01
398,954	170,49
399,157	193,02
399,361	152,06
399,565	109,05
399,769	188,93
399,972	158,21
400,176	170,49
400,38	141,82
400,583	90,62
400,787	207,36
400,991	158,21
401,194	137,73
401,398	172,54
401,601	168,45
401,805	190,97
402,009	150,01
402,212	176,64
402,416	209,4
402,619	139,77
402,823	186,88
403,026	139,77
403,23	115,2
403,433	299,52
403,637	96,77
403,841	147,97
404,044	168,45
404,247	139,77
404,451	209,4
404,654	158,21
404,858	195,07
405,061	117,25
405,265	199,16
405,468	268,8
405,672	156,16
405,875	266,75
406,078	229,88
406,282	135,68
406,485	164,35
406,689	217,6
406,892	223,74
407,095	145,92
407,299	209,4
407,502	258,56
407,705	207,36
407,909	217,6
408,112	256,51
408,315	272,89
408,518	297,47
408,722	190,97
408,925	182,78
409,128	356,86
409,331	223,74
409,535	293,37
409,738	199,16
409,941	336,38
410,144	258,56
410,347	285,18
410,551	328,19
410,754	276,99
410,957	354,81
411,16	215,55
411,363	342,52
411,566	274,94
411,769	307,71
411,973	330,23
412,176	367,1
412,379	342,52
412,582	289,28
412,785	236,03
412,988	195,07
413,191	287,23
413,394	240,12
413,597	256,51
413,8	256,51
414,003	438,78
414,206	164,35
414,409	279,04
414,612	221,69
414,815	240,12
415,018	264,7
415,221	205,31
415,424	317,95
415,627	281,08
415,83	307,71
416,033	231,93
416,235	344,57
416,438	320
416,641	313,85
416,844	264,7
417,047	238,08
417,25	240,12
417,453	266,75
417,655	231,93
417,858	272,89
418,061	197,12
418,264	297,47
418,467	264,7
418,669	332,28
418,872	330,23
419,075	248,32
419,278	336,38
419,48	305,66
419,683	330,23
419,886	313,85
420,089	320
420,291	338,43
420,494	258,56
420,697	215,55
420,899	322,04
421,102	207,36
421,305	332,28
421,507	299,52
421,71	342,52
421,912	264,7
422,115	178,69
422,318	270,84
422,52	315,9
422,723	279,04
422,925	338,43
423,128	350,71
423,33	340,47
423,533	285,18
423,735	281,08
423,938	260,6
424,14	293,37
424,343	354,81
424,545	379,39
424,748	205,31
424,95	274,94
425,153	264,7
425,355	297,47
425,558	375,29
425,76	336,38
425,962	326,14
426,165	231,93
426,367	301,56
426,57	270,84
426,772	223,74
426,974	358,91
427,177	193,02
427,379	209,4
427,581	432,63
427,784	264,7
427,986	248,32
428,188	373,24
428,39	227,84
428,593	190,97
428,795	315,9
428,997	324,09
429,2	219,64
429,402	299,52
429,604	90,62
429,806	250,36
430,008	289,28
430,211	268,8
430,413	262,65
430,615	270,84
430,817	270,84
431,019	274,94
431,221	281,08
431,423	246,27
431,626	264,7
431,828	346,62
432,03	295,42
432,232	346,62
432,434	449,02
432,636	360,95
432,838	311,8
433,04	326,14
433,242	352,76
433,444	381,43
433,646	303,61
433,848	348,67
434,05	330,23
434,252	322,04
434,454	231,93
434,656	254,46
434,858	309,76
435,06	287,23
435,262	436,73
435,464	367,1
435,666	375,29
435,868	496,12
436,07	369,15
436,271	360,95
436,473	295,42
436,675	344,57
436,877	256,51
437,079	354,81
437,281	342,52
437,482	403,96
437,684	326,14
437,886	322,04
438,088	416,25
438,29	322,04
438,491	328,19
438,693	317,95
438,895	379,39
439,097	426,49
439,298	383,48
439,5	371,19
439,702	330,23
439,903	340,47
440,105	430,59
440,307	455,16
440,508	383,48
440,71	473,59
440,912	436,73
441,113	406,01
441,315	365,05
441,517	340,47
441,718	502,26
441,92	403,96
442,121	485,88
442,323	338,43
442,524	440,83
442,726	363
442,928	377,34
443,129	377,34
443,331	320
443,532	485,88
443,734	320
443,935	512,5
444,136	393,72
444,338	393,72
444,539	416,25
444,741	391,67
444,942	418,3
445,144	469,5
445,345	424,44
445,546	418,3
445,748	363
