Data from USB4F035431__7__14-13-37-720.txt Node

Date: Wed Feb 12 14:13:37 CET 2025
User: Versuch 234
Spectrometer: USB4F03543
Trigger mode: 4
Integration Time (sec): 1,000000E-1
Scans to average: 1
Electric dark correction enabled: true
Nonlinearity correction enabled: false
Boxcar width: 0
XAxis mode: Wavelengths
Number of Pixels in Spectrum: 3648
>>>>>Begin Spectral Data<<<<<
179,969	-160,42
180,181	-160,42
180,394	-160,42
180,606	-252,58
180,819	-193,19
181,031	30,04
181,243	40,28
181,456	-31,4
181,668	95,57
181,88	42,32
182,093	1,37
182,305	-58,03
182,518	-62,12
182,73	-19,11
182,942	36,18
183,155	11,61
183,367	-86,7
183,579	-2,73
183,791	-12,97
184,004	-103,08
184,216	-6,83
184,428	-2,73
184,641	-53,93
184,853	-17,07
185,065	-88,75
185,277	-31,4
185,49	11,61
185,702	-78,51
185,914	-51,88
186,126	-78,51
186,338	21,85
186,551	-53,93
186,763	-10,92
186,975	-62,12
187,187	-82,6
187,399	-78,51
187,612	-53,93
187,824	-8,87
188,036	-0,68
188,248	-25,26
188,46	1,37
188,672	-68,27
188,885	-60,07
189,097	46,42
189,309	-45,74
189,521	-12,97
189,733	-66,22
189,945	15,7
190,157	-6,83
190,369	-39,59
190,581	-66,22
190,794	36,18
191,006	-58,03
191,218	23,89
191,43	21,85
191,642	-53,93
191,854	-58,03
192,066	75,09
192,278	56,66
192,49	-41,64
192,702	-90,79
192,914	-12,97
193,126	-47,79
193,338	-49,83
193,55	-76,46
193,762	27,99
193,974	-94,89
194,186	-62,12
194,398	1,37
194,61	-31,4
194,822	-41,64
195,034	-29,35
195,246	50,52
195,457	-53,93
195,669	60,76
195,881	-29,35
196,093	-98,99
196,305	71
196,517	-45,74
196,729	17,75
196,941	-39,59
197,153	44,37
197,365	99,67
197,576	-105,13
197,788	-41,64
198	27,99
198,212	17,75
198,424	7,51
198,636	-68,27
198,847	-111,27
199,059	-4,78
199,271	-45,74
199,483	-60,07
199,695	-27,31
199,906	-17,07
200,118	-119,46
200,33	36,18
200,542	326,99
200,753	-45,74
200,965	-72,36
201,177	-19,11
201,389	11,61
201,6	-92,84
201,812	11,61
202,024	-55,98
202,235	-53,93
202,447	-37,55
202,659	-8,87
202,871	-15,02
203,082	-39,59
203,294	-21,16
203,506	-70,31
203,717	-12,97
203,929	15,7
204,141	5,46
204,352	23,89
204,564	27,99
204,775	-17,07
204,987	34,13
205,199	-25,26
205,41	-15,02
205,622	44,37
205,833	-35,5
206,045	-66,22
206,257	-80,55
206,468	-12,97
206,68	-35,5
206,891	3,41
207,103	-25,26
207,314	-80,55
207,526	-4,78
207,737	-62,12
207,949	-8,87
208,16	15,7
208,372	42,32
208,583	25,94
208,795	-33,45
209,006	-6,83
209,218	-31,4
209,429	-62,12
209,641	-25,26
209,852	-107,18
210,064	23,89
210,275	-70,31
210,487	-47,79
210,698	-12,97
210,909	-74,41
211,121	-39,59
211,332	30,04
211,544	-29,35
211,755	-29,35
211,966	25,94
212,178	-4,78
212,389	40,28
212,6	36,18
212,812	11,61
213,023	23,89
213,234	-53,93
213,446	-19,11
213,657	-88,75
213,868	32,08
214,08	36,18
214,291	54,61
214,502	15,7
214,714	-101,03
214,925	-29,35
215,136	15,7
215,347	-23,21
215,559	-86,7
215,77	-33,45
215,981	11,61
216,192	-6,83
216,404	36,18
216,615	-49,83
216,826	-39,59
217,037	-58,03
217,249	1,37
217,46	48,47
217,671	-84,65
217,882	-60,07
218,093	-17,07
218,304	-0,68
218,516	-12,97
218,727	-60,07
218,938	-49,83
219,149	77,14
219,36	-29,35
219,571	-49,83
219,782	-41,64
219,993	73,04
220,205	-80,55
220,416	3,41
220,627	-37,55
220,838	-4,78
221,049	73,04
221,26	52,56
221,471	-12,97
221,682	27,99
221,893	46,42
222,104	-148,14
222,315	-109,22
222,526	-51,88
222,737	-47,79
222,948	-27,31
223,159	-33,45
223,37	81,24
223,581	-74,41
223,792	-45,74
224,003	-25,26
224,214	-70,31
224,425	-15,02
224,636	-58,03
224,847	19,8
225,058	-51,88
225,269	-17,07
225,48	-88,75
225,691	-51,88
225,902	-33,45
226,112	-86,7
226,323	-70,31
226,534	-2,73
226,745	-17,07
226,956	-49,83
227,167	-39,59
227,378	11,61
227,589	-55,98
227,799	58,71
228,01	15,7
228,221	3,41
228,432	-62,12
228,643	-109,22
228,853	-12,97
229,064	-51,88
229,275	19,8
229,486	-47,79
229,697	-84,65
229,907	-107,18
230,118	-94,89
230,329	-17,07
230,54	-39,59
230,75	27,99
230,961	34,13
231,172	-62,12
231,383	-117,42
231,593	-6,83
231,804	-27,31
232,015	30,04
232,225	-6,83
232,436	1,37
232,647	-74,41
232,857	3,41
233,068	-117,42
233,279	-2,73
233,489	3,41
233,7	-17,07
233,91	-29,35
234,121	-4,78
234,332	-82,6
234,542	-58,03
234,753	-64,17
234,964	-12,97
235,174	3,41
235,385	-19,11
235,595	-94,89
235,806	-6,83
236,016	27,99
236,227	-60,07
236,437	-96,94
236,648	-88,75
236,858	23,89
237,069	-111,27
237,279	1,37
237,49	-15,02
237,7	5,46
237,911	-66,22
238,121	-88,75
238,332	-45,74
238,542	9,56
238,753	-119,46
238,963	-103,08
239,174	-29,35
239,384	3,41
239,595	-4,78
239,805	-117,42
240,015	21,85
240,226	-43,69
240,436	30,04
240,647	7,51
240,857	-4,78
241,067	-15,02
241,278	77,14
241,488	-76,46
241,698	23,89
241,909	-60,07
242,119	-58,03
242,329	-4,78
242,54	-17,07
242,75	-115,37
242,96	-23,21
243,171	-29,35
243,381	-27,31
243,591	-10,92
243,801	23,89
244,012	73,04
244,222	-15,02
244,432	-82,6
244,642	-58,03
244,853	-39,59
245,063	-45,74
245,273	11,61
245,483	-86,7
245,694	1,37
245,904	3,41
246,114	7,51
246,324	-62,12
246,534	-66,22
246,744	-64,17
246,955	-94,89
247,165	77,14
247,375	48,47
247,585	-21,16
247,795	-29,35
248,005	-4,78
248,215	11,61
248,425	-15,02
248,636	152,91
248,846	-29,35
249,056	-37,55
249,266	-80,55
249,476	-37,55
249,686	-82,6
249,896	-55,98
250,106	-12,97
250,316	-47,79
250,526	60,76
250,736	-68,27
250,946	27,99
251,156	36,18
251,366	25,94
251,576	34,13
251,786	-6,83
251,996	-29,35
252,206	-53,93
252,416	36,18
252,626	-31,4
252,836	-29,35
253,046	-4,78
253,256	42,32
253,466	-0,68
253,676	-49,83
253,885	-29,35
254,095	23,89
254,305	40,28
254,515	-86,7
254,725	-21,16
254,935	-6,83
255,145	3,41
255,355	-4,78
255,564	7,51
255,774	-21,16
255,984	17,75
256,194	-70,31
256,404	-4,78
256,614	15,7
256,823	34,13
257,033	-6,83
257,243	9,56
257,453	-33,45
257,662	11,61
257,872	19,8
258,082	27,99
258,292	-68,27
258,501	75,09
258,711	81,24
258,921	56,66
259,131	-37,55
259,34	7,51
259,55	3,41
259,76	-4,78
259,969	-64,17
260,179	-72,36
260,389	19,8
260,598	1,37
260,808	-12,97
261,018	-117,42
261,227	64,85
261,437	-49,83
261,647	27,99
261,856	-47,79
262,066	-37,55
262,275	50,52
262,485	-53,93
262,694	-29,35
262,904	11,61
263,114	-17,07
263,323	-29,35
263,533	19,8
263,742	-88,75
263,952	-25,26
264,161	-51,88
264,371	-8,87
264,58	-12,97
264,79	-33,45
264,999	-21,16
265,209	-4,78
265,418	-49,83
265,628	-53,93
265,837	-29,35
266,047	-6,83
266,256	17,75
266,466	-29,35
266,675	-41,64
266,884	-41,64
267,094	7,51
267,303	-10,92
267,513	25,94
267,722	27,99
267,931	68,95
268,141	-70,31
268,35	52,56
268,559	-21,16
268,769	-10,92
268,978	-111,27
269,187	85,33
269,397	-78,51
269,606	-72,36
269,815	-86,7
270,025	11,61
270,234	-21,16
270,443	-72,36
270,653	-37,55
270,862	-25,26
271,071	-86,7
271,28	-45,74
271,49	32,08
271,699	-72,36
271,908	77,14
272,117	-29,35
272,327	-62,12
272,536	-49,83
272,745	36,18
272,954	-4,78
273,163	-4,78
273,372	11,61
273,582	-60,07
273,791	11,61
274	9,56
274,209	-29,35
274,418	-15,02
274,627	15,7
274,836	-21,16
275,046	-21,16
275,255	-78,51
275,464	-62,12
275,673	-33,45
275,882	-45,74
276,091	27,99
276,3	5,46
276,509	-31,4
276,718	-29,35
276,927	-62,12
277,136	36,18
277,345	-29,35
277,554	11,61
277,763	-8,87
277,972	-37,55
278,181	-70,31
278,39	-37,55
278,599	-51,88
278,808	-23,21
279,017	40,28
279,226	-80,55
279,435	-2,73
279,644	-103,08
279,853	-8,87
280,062	81,24
280,271	-66,22
280,48	-68,27
280,688	-70,31
280,897	-4,78
281,106	-53,93
281,315	-31,4
281,524	-17,07
281,733	-55,98
281,942	-2,73
282,151	3,41
282,359	-19,11
282,568	-37,55
282,777	-29,35
282,986	-45,74
283,195	25,94
283,403	32,08
283,612	-33,45
283,821	-4,78
284,03	-68,27
284,238	36,18
284,447	-55,98
284,656	-6,83
284,865	-21,16
285,073	-23,21
285,282	64,85
285,491	3,41
285,699	-121,51
285,908	17,75
286,117	-55,98
286,325	-23,21
286,534	36,18
286,743	-64,17
286,951	-58,03
287,16	-4,78
287,369	-35,5
287,577	-37,55
287,786	-12,97
287,995	-62,12
288,203	-47,79
288,412	1,37
288,62	71
288,829	-49,83
289,037	-4,78
289,246	-98,99
289,455	-17,07
289,663	-4,78
289,872	13,65
290,08	-25,26
290,289	91,48
290,497	-66,22
290,706	-19,11
290,914	-86,7
291,123	-62,12
291,331	-29,35
291,54	23,89
291,748	44,37
291,957	-33,45
292,165	-58,03
292,373	-111,27
292,582	-29,35
292,79	64,85
292,999	11,61
293,207	-37,55
293,415	-55,98
293,624	-45,74
293,832	-15,02
294,041	40,28
294,249	1,37
294,457	-29,35
294,666	25,94
294,874	-64,17
295,082	19,8
295,291	11,61
295,499	-17,07
295,707	-66,22
295,915	15,7
296,124	-8,87
296,332	-55,98
296,54	21,85
296,749	5,46
296,957	42,32
297,165	-58,03
297,373	-62,12
297,581	-37,55
297,79	-8,87
297,998	-51,88
298,206	-51,88
298,414	-64,17
298,622	1,37
298,831	7,51
299,039	25,94
299,247	23,89
299,455	5,46
299,663	-39,59
299,871	-55,98
300,08	-43,69
300,288	-25,26
300,496	-160,42
300,704	-43,69
300,912	-15,02
301,12	44,37
301,328	-49,83
301,536	-17,07
301,744	-111,27
301,952	1,37
302,16	-15,02
302,368	-86,7
302,576	-12,97
302,784	118,1
302,992	-103,08
303,2	-78,51
303,408	-25,26
303,616	48,47
303,824	-21,16
304,032	3,41
304,24	23,89
304,448	9,56
304,656	-29,35
304,864	75,09
305,072	1,37
305,28	-29,35
305,488	-45,74
305,696	-17,07
305,904	17,75
306,111	-96,94
306,319	-121,51
306,527	-29,35
306,735	-35,5
306,943	-31,4
307,151	-37,55
307,359	-45,74
307,566	77,14
307,774	40,28
307,982	52,56
308,19	-64,17
308,398	-55,98
308,605	-62,12
308,813	1,37
309,021	-35,5
309,229	-21,16
309,436	19,8
309,644	3,41
309,852	17,75
310,06	91,48
310,267	-49,83
310,475	-21,16
310,683	-37,55
310,89	79,19
311,098	68,95
311,306	-35,5
311,513	-6,83
311,721	-127,66
311,929	11,61
312,136	-62,12
312,344	-25,26
312,552	-23,21
312,759	-53,93
312,967	19,8
313,174	48,47
313,382	-39,59
313,589	-55,98
313,797	52,56
314,005	21,85
314,212	-8,87
314,42	-90,79
314,627	-64,17
314,835	-29,35
315,042	-94,89
315,25	-41,64
315,457	-137,9
315,665	-103,08
315,872	-41,64
316,08	38,23
316,287	40,28
316,495	224,59
316,702	-88,75
316,909	-31,4
317,117	-33,45
317,324	27,99
317,532	11,61
317,739	-17,07
317,946	32,08
318,154	-15,02
318,361	-66,22
318,569	-12,97
318,776	-15,02
318,983	-37,55
319,191	-6,83
319,398	-15,02
319,605	27,99
319,813	-15,02
320,02	-94,89
320,227	105,81
320,434	15,7
320,642	-31,4
320,849	-4,78
321,056	-94,89
321,264	-10,92
321,471	34,13
321,678	-29,35
321,885	-41,64
322,092	13,65
322,3	-35,5
322,507	-113,32
322,714	-21,16
322,921	-55,98
323,128	-58,03
323,336	-39,59
323,543	32,08
323,75	5,46
323,957	-4,78
324,164	11,61
324,371	1,37
324,578	-19,11
324,786	19,8
324,993	-101,03
325,2	36,18
325,407	-129,7
325,614	-33,45
325,821	-4,78
326,028	87,38
326,235	-4,78
326,442	-39,59
326,649	-8,87
326,856	134,48
327,063	-94,89
327,27	-49,83
327,477	-25,26
327,684	-60,07
327,891	-66,22
328,098	1,37
328,305	-39,59
328,512	-82,6
328,719	7,51
328,926	64,85
329,133	-98,99
329,34	93,52
329,546	-21,16
329,753	-27,31
329,96	-37,55
330,167	19,8
330,374	-15,02
330,581	25,94
330,788	-45,74
330,995	-55,98
331,201	-8,87
331,408	-23,21
331,615	-33,45
331,822	11,61
332,029	-45,74
332,235	-4,78
332,442	-127,66
332,649	-37,55
332,856	-111,27
333,062	-37,55
333,269	3,41
333,476	15,7
333,683	5,46
333,889	27,99
334,096	-31,4
334,303	-27,31
334,509	-29,35
334,716	-25,26
334,923	-31,4
335,129	-129,7
335,336	-21,16
335,543	-45,74
335,749	-64,17
335,956	54,61
336,163	-64,17
336,369	-78,51
336,576	-29,35
336,782	9,56
336,989	-60,07
337,196	-66,22
337,402	-62,12
337,609	-4,78
337,815	13,65
338,022	30,04
338,228	-25,26
338,435	81,24
338,641	34,13
338,848	36,18
339,054	-41,64
339,261	-58,03
339,467	-72,36
339,674	3,41
339,88	-80,55
340,087	-55,98
340,293	-55,98
340,5	-39,59
340,706	-49,83
340,912	-129,7
341,119	-4,78
341,325	-70,31
341,532	-39,59
341,738	-47,79
341,944	-25,26
342,151	19,8
342,357	-31,4
342,563	17,75
342,77	-27,31
342,976	-39,59
343,182	62,8
343,389	68,95
343,595	-78,51
343,801	-35,5
344,007	-23,21
344,214	-121,51
344,42	-45,74
344,626	-49,83
344,832	-92,84
345,039	-39,59
345,245	38,23
345,451	-101,03
345,657	-23,21
345,864	-64,17
346,07	3,41
346,276	-15,02
346,482	5,46
346,688	1,37
346,894	-98,99
347,1	19,8
347,307	-33,45
347,513	32,08
347,719	-23,21
347,925	36,18
348,131	-94,89
348,337	64,85
348,543	-76,46
348,749	-39,59
348,955	58,71
349,161	-88,75
349,367	-25,26
349,573	66,9
349,779	32,08
349,985	-25,26
350,191	-39,59
350,397	27,99
350,603	-21,16
350,809	-66,22
351,015	-45,74
351,221	15,7
351,427	44,37
351,633	-21,16
351,839	-47,79
352,045	-17,07
352,251	48,47
352,457	7,51
352,663	-21,16
352,869	-70,31
353,075	-35,5
353,28	-15,02
353,486	-94,89
353,692	-111,27
353,898	-51,88
354,104	-62,12
354,31	19,8
354,515	-17,07
354,721	-0,68
354,927	-12,97
355,133	23,89
355,339	-49,83
355,544	13,65
355,75	40,28
355,956	-10,92
356,162	-4,78
356,367	-17,07
356,573	11,61
356,779	-45,74
356,984	-21,16
357,19	25,94
357,396	-53,93
357,602	75,09
357,807	-10,92
358,013	5,46
358,218	-49,83
358,424	-41,64
358,63	-45,74
358,835	-70,31
359,041	-94,89
359,247	-12,97
359,452	-58,03
359,658	-103,08
359,863	-23,21
360,069	-21,16
360,274	-66,22
360,48	105,81
360,685	-8,87
360,891	32,08
361,097	-19,11
361,302	-23,21
361,508	-2,73
361,713	-12,97
361,918	32,08
362,124	-60,07
362,329	-60,07
362,535	-15,02
362,74	-47,79
362,946	-78,51
363,151	3,41
363,357	-21,16
363,562	-53,93
363,767	-33,45
363,973	-43,69
364,178	-45,74
364,383	-96,94
364,589	19,8
364,794	-27,31
365	-2,73
365,205	1,37
365,41	-74,41
365,615	3,41
365,821	-123,56
366,026	50,52
366,231	21,85
366,437	36,18
366,642	-64,17
366,847	-2,73
367,052	-64,17
367,258	-49,83
367,463	-51,88
367,668	27,99
367,873	40,28
368,078	107,86
368,284	-53,93
368,489	-2,73
368,694	-0,68
368,899	116,05
369,104	27,99
369,309	-21,16
369,515	-10,92
369,72	-6,83
369,925	-53,93
370,13	3,41
370,335	-6,83
370,54	-21,16
370,745	-27,31
370,95	27,99
371,155	3,41
371,36	40,28
371,565	-8,87
371,77	-62,12
371,975	-62,12
372,18	5,46
372,385	42,32
372,59	3,41
372,795	-31,4
373	-25,26
373,205	23,89
373,41	-2,73
373,615	-53,93
373,82	-70,31
374,025	19,8
374,23	-121,51
374,435	-45,74
374,64	3,41
374,845	40,28
375,05	-51,88
375,254	-53,93
375,459	3,41
375,664	-74,41
375,869	36,18
376,074	-35,5
376,279	-60,07
376,483	58,71
376,688	-6,83
376,893	-23,21
377,098	-15,02
377,303	17,75
377,507	19,8
377,712	-8,87
377,917	-21,16
378,122	5,46
378,326	30,04
378,531	-58,03
378,736	-17,07
378,94	-55,98
379,145	-43,69
379,35	11,61
379,554	-68,27
379,759	-15,02
379,964	-0,68
380,168	-53,93
380,373	13,65
380,578	97,62
380,782	36,18
380,987	-4,78
381,191	-8,87
381,396	-4,78
381,601	64,85
381,805	64,85
382,01	60,76
382,214	3,41
382,419	44,37
382,623	-0,68
382,828	32,08
383,032	-31,4
383,237	-68,27
383,441	-113,32
383,646	38,23
383,85	-70,31
384,055	3,41
384,259	44,37
384,464	-74,41
384,668	-21,16
384,872	-23,21
385,077	-45,74
385,281	32,08
385,486	-70,31
385,69	-17,07
385,894	36,18
386,099	85,33
386,303	48,47
386,507	7,51
386,712	107,86
386,916	17,75
387,12	11,61
387,325	42,32
387,529	1,37
387,733	5,46
387,937	13,65
388,142	-29,35
388,346	-47,79
388,55	48,47
388,754	3,41
388,959	25,94
389,163	-12,97
389,367	44,37
389,571	34,13
389,775	75,09
389,98	99,67
390,184	-25,26
390,388	50,52
390,592	118,1
390,796	42,32
391	32,08
391,204	17,75
391,409	1,37
391,613	46,42
391,817	46,42
392,021	60,76
392,225	-4,78
392,429	1,37
392,633	9,56
392,837	-8,87
393,041	-12,97
393,245	-45,74
393,449	-45,74
393,653	42,32
393,857	81,24
394,061	60,76
394,265	118,1
394,469	126,29
394,673	30,04
394,877	107,86
395,081	21,85
395,285	77,14
395,489	-8,87
395,693	-0,68
395,896	30,04
396,1	25,94
396,304	126,29
396,508	19,8
396,712	60,76
396,916	50,52
397,12	116,05
397,323	109,91
397,527	25,94
397,731	130,39
397,935	163,15
398,139	85,33
398,342	128,34
398,546	85,33
398,75	48,47
398,954	93,52
399,157	140,63
399,361	197,97
399,565	99,67
399,769	136,53
399,972	126,29
400,176	75,09
400,38	189,78
400,583	52,56
400,787	97,62
400,991	130,39
401,194	185,68
401,398	138,58
401,601	165,2
401,805	171,35
402,009	124,24
402,212	126,29
402,416	222,55
402,619	161,11
402,823	116,05
403,026	148,82
403,23	109,91
403,433	195,92
403,637	97,62
403,841	187,73
404,044	208,21
404,247	177,49
404,451	220,5
404,654	253,27
404,858	187,73
405,061	116,05
405,265	179,54
405,468	159,06
405,672	126,29
405,875	148,82
406,078	126,29
406,282	138,58
406,485	159,06
406,689	185,68
406,892	232,79
407,095	183,63
407,299	132,44
407,502	208,21
407,705	179,54
407,909	159,06
408,112	146,77
408,315	249,17
408,518	245,07
408,722	177,49
408,925	251,22
409,128	228,69
409,331	247,12
409,535	257,36
409,738	271,7
409,941	349,52
410,144	154,96
410,347	234,83
410,551	216,4
410,754	224,59
410,957	161,11
411,16	212,31
411,363	253,27
411,566	341,33
411,769	206,16
411,973	216,4
412,176	286,03
412,379	349,52
412,582	220,5
412,785	245,07
412,988	150,87
413,191	224,59
413,394	261,46
413,597	253,27
413,8	226,64
414,003	322,9
414,206	210,26
414,409	249,17
414,612	316,75
414,815	200,02
415,018	240,98
415,221	206,16
415,424	324,94
415,627	208,21
415,83	275,79
416,033	304,46
416,235	302,42
416,438	283,99
416,641	292,18
416,844	281,94
417,047	183,63
417,25	146,77
417,453	286,03
417,655	181,59
417,858	267,6
418,061	286,03
418,264	247,12
418,467	183,63
418,669	253,27
418,872	257,36
419,075	148,82
419,278	273,75
419,48	294,22
419,683	210,26
419,886	224,59
420,089	290,13
420,291	298,32
420,494	261,46
420,697	195,92
420,899	257,36
421,102	226,64
421,305	308,56
421,507	195,92
421,71	329,04
421,912	267,6
422,115	220,5
422,318	314,7
422,52	279,89
422,723	197,97
422,925	376,14
423,128	263,51
423,33	212,31
423,533	193,87
423,735	224,59
423,938	298,32
424,14	251,22
424,343	347,47
424,545	290,13
424,748	238,93
424,95	290,13
425,153	302,42
425,355	243,03
425,558	351,57
425,76	253,27
425,962	265,55
426,165	314,7
426,367	253,27
426,57	296,27
426,772	265,55
426,974	279,89
427,177	175,44
427,379	240,98
427,581	306,51
427,784	195,92
427,986	218,45
428,188	269,65
428,39	314,7
428,593	212,31
428,795	300,37
428,997	339,28
429,2	224,59
429,402	185,68
429,604	138,58
429,806	169,3
430,008	312,66
430,211	206,16
430,413	220,5
430,615	310,61
430,817	208,21
431,019	277,84
431,221	320,85
431,423	273,75
431,626	243,03
431,828	281,94
432,03	257,36
432,232	372,05
432,434	357,71
432,636	275,79
432,838	191,83
433,04	286,03
433,242	267,6
433,444	257,36
433,646	365,9
433,848	273,75
434,05	320,85
434,252	255,31
434,454	308,56
434,656	294,22
434,858	302,42
435,06	345,42
435,262	384,34
435,464	290,13
435,666	427,34
435,868	421,2
436,07	437,58
436,271	333,14
436,473	378,19
436,675	359,76
436,877	349,52
437,079	333,14
437,281	310,61
437,482	363,86
437,684	271,7
437,886	304,46
438,088	312,66
438,29	310,61
438,491	355,66
438,693	290,13
438,895	306,51
439,097	359,76
439,298	343,38
439,5	298,32
439,702	290,13
439,903	314,7
440,105	308,56
440,307	462,16
440,508	419,15
440,71	372,05
440,912	339,28
441,113	363,86
441,315	410,96
441,517	298,32
441,718	451,92
441,92	392,53
442,121	388,43
442,323	298,32
442,524	417,1
442,726	421,2
442,928	337,23
443,129	355,66
443,331	353,62
