Data from USB4F035431__13__14-21-58-271.txt Node

Date: Wed Feb 12 14:21:58 CET 2025
User: Versuch 234
Spectrometer: USB4F03543
Trigger mode: 4
Integration Time (sec): 1,000000E-1
Scans to average: 1
Electric dark correction enabled: true
Nonlinearity correction enabled: false
Boxcar width: 0
XAxis mode: Wavelengths
Number of Pixels in Spectrum: 3648
>>>>>Begin Spectral Data<<<<<
179,969	-146,26
180,181	-146,26
180,394	-146,26
180,606	-80,72
180,819	-127,83
181,031	38,06
181,243	64,68
181,456	-56,15
181,668	58,54
181,88	23,72
182,093	-15,19
182,305	-54,1
182,518	-23,38
182,73	23,72
182,942	44,2
183,155	-39,76
183,367	-64,34
183,579	46,25
183,791	148,65
184,004	124,07
184,216	138,41
184,428	87,21
184,641	87,21
184,853	17,58
185,065	144,55
185,277	33,96
185,49	152,74
185,702	68,78
185,914	1,19
186,126	42,15
186,338	29,87
186,551	83,11
186,763	83,11
186,975	21,67
187,187	119,98
187,399	33,96
187,612	74,92
187,824	93,35
188,036	52,39
188,248	79,02
188,46	107,69
188,672	97,45
188,885	99,5
189,097	152,74
189,309	31,91
189,521	21,67
189,733	50,35
189,945	85,16
190,157	89,26
190,369	66,73
190,581	115,88
190,794	150,7
191,006	122,02
191,218	177,32
191,43	146,6
191,642	54,44
191,854	56,49
192,066	165,03
192,278	124,07
192,49	19,63
192,702	97,45
192,914	115,88
193,126	72,87
193,338	115,88
193,55	115,88
193,762	83,11
193,974	36,01
194,186	89,26
194,398	111,78
194,61	56,49
194,822	158,89
195,034	111,78
195,246	179,37
195,457	136,36
195,669	175,27
195,881	132,26
196,093	3,24
196,305	136,36
196,517	46,25
196,729	132,26
196,941	95,4
197,153	91,31
197,365	144,55
197,576	111,78
197,788	38,06
198	138,41
198,212	177,32
198,424	162,98
198,636	66,73
198,847	17,58
199,059	132,26
199,271	70,83
199,483	140,46
199,695	85,16
199,906	130,22
200,118	148,65
200,33	169,13
200,542	429,22
200,753	130,22
200,965	115,88
201,177	126,12
201,389	197,8
201,6	70,83
201,812	85,16
202,024	79,02
202,235	50,35
202,447	115,88
202,659	177,32
202,871	128,17
203,082	72,87
203,294	62,63
203,506	101,55
203,717	179,37
203,929	136,36
204,141	54,44
204,352	212,14
204,564	79,02
204,775	89,26
204,987	146,6
205,199	130,22
205,41	15,53
205,622	81,07
205,833	58,54
206,045	124,07
206,257	83,11
206,468	13,48
206,68	101,55
206,891	115,88
207,103	83,11
207,314	19,63
207,526	150,7
207,737	74,92
207,949	113,83
208,16	156,84
208,372	119,98
208,583	85,16
208,795	165,03
209,006	130,22
209,218	130,22
209,429	29,87
209,641	72,87
209,852	85,16
210,064	122,02
210,275	64,68
210,487	62,63
210,698	195,75
210,909	160,94
211,121	136,36
211,332	83,11
211,544	119,98
211,755	195,75
211,966	138,41
212,178	83,11
212,389	255,14
212,6	83,11
212,812	165,03
213,023	154,79
213,234	128,17
213,446	72,87
213,657	50,35
213,868	165,03
214,08	193,7
214,291	150,7
214,502	87,21
214,714	5,29
214,925	142,5
215,136	74,92
215,347	93,35
215,559	83,11
215,77	40,11
215,981	242,85
216,192	79,02
216,404	142,5
216,615	23,72
216,826	119,98
217,037	81,07
217,249	136,36
217,46	230,57
217,671	130,22
217,882	140,46
218,093	85,16
218,304	167,08
218,516	148,65
218,727	42,15
218,938	58,54
219,149	222,38
219,36	169,13
219,571	138,41
219,782	109,74
219,993	115,88
220,205	91,31
220,416	156,84
220,627	111,78
220,838	158,89
221,049	267,43
221,26	146,6
221,471	136,36
221,682	154,79
221,893	132,26
222,104	25,77
222,315	62,63
222,526	33,96
222,737	138,41
222,948	72,87
223,159	91,31
223,37	205,99
223,581	136,36
223,792	74,92
224,003	103,59
224,214	15,53
224,425	99,5
224,636	115,88
224,847	124,07
225,058	140,46
225,269	167,08
225,48	52,39
225,691	64,68
225,902	138,41
226,112	167,08
226,323	33,96
226,534	50,35
226,745	113,83
226,956	42,15
227,167	76,97
227,378	97,45
227,589	105,64
227,799	193,7
228,01	62,63
228,221	9,39
228,432	107,69
228,643	58,54
228,853	58,54
229,064	58,54
229,275	105,64
229,486	101,55
229,697	95,4
229,907	91,31
230,118	152,74
230,329	138,41
230,54	142,5
230,75	124,07
230,961	156,84
231,172	44,2
231,383	70,83
231,593	19,63
231,804	81,07
232,015	156,84
232,225	115,88
232,436	58,54
232,647	138,41
232,857	89,26
233,068	72,87
233,279	187,56
233,489	203,94
233,7	132,26
233,91	89,26
234,121	91,31
234,332	136,36
234,542	91,31
234,753	91,31
234,964	173,22
235,174	95,4
235,385	181,42
235,595	11,43
235,806	181,42
236,016	62,63
236,227	122,02
236,437	175,27
236,648	70,83
236,858	79,02
237,069	119,98
237,279	93,35
237,49	119,98
237,7	99,5
237,911	62,63
238,121	162,98
238,332	42,15
238,542	122,02
238,753	66,73
238,963	91,31
239,174	134,31
239,384	50,35
239,595	122,02
239,805	62,63
240,015	83,11
240,226	72,87
240,436	140,46
240,647	95,4
240,857	91,31
241,067	154,79
241,278	271,53
241,488	31,91
241,698	89,26
241,909	89,26
242,119	66,73
242,329	138,41
242,54	113,83
242,75	132,26
242,96	93,35
243,171	109,74
243,381	144,55
243,591	134,31
243,801	173,22
244,012	201,9
244,222	156,84
244,432	50,35
244,642	105,64
244,853	107,69
245,063	105,64
245,273	95,4
245,483	101,55
245,694	111,78
245,904	126,12
246,114	165,03
246,324	70,83
246,534	150,7
246,744	115,88
246,955	-50
247,165	175,27
247,375	208,04
247,585	138,41
247,795	128,17
248,005	95,4
248,215	165,03
248,425	169,13
248,636	160,94
248,846	128,17
249,056	50,35
249,266	72,87
249,476	5,29
249,686	167,08
249,896	126,12
250,106	70,83
250,316	40,11
250,526	208,04
250,736	99,5
250,946	150,7
251,156	156,84
251,366	138,41
251,576	124,07
251,786	177,32
251,996	119,98
252,206	119,98
252,416	91,31
252,626	64,68
252,836	-15,19
253,046	148,65
253,256	165,03
253,466	156,84
253,676	107,69
253,885	91,31
254,095	101,55
254,305	99,5
254,515	107,69
254,725	83,11
254,935	42,15
255,145	136,36
255,355	160,94
255,564	60,59
255,774	83,11
255,984	165,03
256,194	68,78
256,404	54,44
256,614	171,18
256,823	197,8
257,033	187,56
257,243	136,36
257,453	173,22
257,662	74,92
257,872	193,7
258,082	76,97
258,292	74,92
258,501	169,13
258,711	240,81
258,921	177,32
259,131	87,21
259,34	85,16
259,55	119,98
259,76	48,3
259,969	99,5
260,179	50,35
260,389	91,31
260,598	140,46
260,808	148,65
261,018	50,35
261,227	130,22
261,437	64,68
261,647	140,46
261,856	72,87
262,066	117,93
262,275	205,99
262,485	187,56
262,694	150,7
262,904	64,68
263,114	105,64
263,323	91,31
263,533	117,93
263,742	66,73
263,952	132,26
264,161	109,74
264,371	56,49
264,58	46,25
264,79	91,31
264,999	130,22
265,209	142,5
265,418	189,61
265,628	173,22
265,837	152,74
266,047	136,36
266,256	251,05
266,466	64,68
266,675	1,19
266,884	124,07
267,094	124,07
267,303	212,14
267,513	150,7
267,722	175,27
267,931	160,94
268,141	81,07
268,35	156,84
268,559	191,66
268,769	48,3
268,978	66,73
269,187	105,64
269,397	81,07
269,606	152,74
269,815	99,5
270,025	81,07
270,234	122,02
270,443	138,41
270,653	76,97
270,862	105,64
271,071	50,35
271,28	128,17
271,49	62,63
271,699	79,02
271,908	126,12
272,117	-2,9
272,327	66,73
272,536	99,5
272,745	25,77
272,954	74,92
273,163	97,45
273,372	142,5
273,582	50,35
273,791	150,7
274	140,46
274,209	150,7
274,418	171,18
274,627	201,9
274,836	85,16
275,046	173,22
275,255	169,13
275,464	54,44
275,673	72,87
275,882	105,64
276,091	93,35
276,3	64,68
276,509	132,26
276,718	107,69
276,927	87,21
277,136	97,45
277,345	89,26
277,554	136,36
277,763	83,11
277,972	140,46
278,181	87,21
278,39	68,78
278,599	115,88
278,808	48,3
279,017	201,9
279,226	97,45
279,435	128,17
279,644	128,17
279,853	158,89
280,062	199,85
280,271	146,6
280,48	132,26
280,688	56,49
280,897	150,7
281,106	97,45
281,315	142,5
281,524	154,79
281,733	142,5
281,942	113,83
282,151	140,46
282,359	109,74
282,568	56,49
282,777	76,97
282,986	91,31
283,195	193,7
283,403	99,5
283,612	117,93
283,821	136,36
284,03	132,26
284,238	122,02
284,447	122,02
284,656	72,87
284,865	101,55
285,073	89,26
285,282	117,93
285,491	97,45
285,699	89,26
285,908	158,89
286,117	97,45
286,325	154,79
286,534	171,18
286,743	74,92
286,951	66,73
287,16	197,8
287,369	89,26
287,577	124,07
287,786	115,88
287,995	107,69
288,203	79,02
288,412	203,94
288,62	124,07
288,829	50,35
289,037	124,07
289,246	87,21
289,455	119,98
289,663	91,31
289,872	97,45
290,08	99,5
290,289	169,13
290,497	25,77
290,706	62,63
290,914	9,39
291,123	128,17
291,331	117,93
291,54	156,84
291,748	271,53
291,957	171,18
292,165	128,17
292,373	-17,24
292,582	83,11
292,79	91,31
292,999	212,14
293,207	142,5
293,415	79,02
293,624	74,92
293,832	97,45
294,041	140,46
294,249	72,87
294,457	52,39
294,666	189,61
294,874	62,63
295,082	146,6
295,291	160,94
295,499	142,5
295,707	169,13
295,915	105,64
296,124	85,16
296,332	193,7
296,54	103,59
296,749	154,79
296,957	169,13
297,165	103,59
297,373	70,83
297,581	128,17
297,79	122,02
297,998	58,54
298,206	91,31
298,414	140,46
298,622	181,42
298,831	156,84
299,039	64,68
299,247	232,62
299,455	126,12
299,663	128,17
299,871	72,87
300,08	79,02
300,288	111,78
300,496	85,16
300,704	1,19
300,912	87,21
301,12	70,83
301,328	89,26
301,536	130,22
301,744	33,96
301,952	89,26
302,16	156,84
302,368	132,26
302,576	119,98
302,784	175,27
302,992	48,3
303,2	105,64
303,408	76,97
303,616	76,97
303,824	203,94
304,032	122,02
304,24	154,79
304,448	138,41
304,656	107,69
304,864	148,65
305,072	130,22
305,28	134,31
305,488	124,07
305,696	132,26
305,904	72,87
306,111	66,73
306,319	91,31
306,527	138,41
306,735	136,36
306,943	255,14
307,151	107,69
307,359	66,73
307,566	181,42
307,774	201,9
307,982	140,46
308,19	85,16
308,398	83,11
308,605	122,02
308,813	36,01
309,021	66,73
309,229	183,46
309,436	54,44
309,644	140,46
309,852	144,55
310,06	183,46
310,267	48,3
310,475	115,88
310,683	85,16
310,89	95,4
311,098	138,41
311,306	124,07
311,513	181,42
311,721	97,45
311,929	81,07
312,136	156,84
312,344	91,31
312,552	111,78
312,759	40,11
312,967	115,88
313,174	111,78
313,382	124,07
313,589	111,78
313,797	216,23
314,005	197,8
314,212	175,27
314,42	66,73
314,627	169,13
314,835	140,46
315,042	158,89
315,25	99,5
315,457	79,02
315,665	50,35
315,872	187,56
316,08	128,17
316,287	79,02
316,495	351,4
316,702	119,98
316,909	66,73
317,117	220,33
317,324	144,55
317,532	197,8
317,739	68,78
317,946	72,87
318,154	-2,9
318,361	122,02
318,569	150,7
318,776	40,11
318,983	95,4
319,191	97,45
319,398	132,26
319,605	115,88
319,813	138,41
320,02	60,59
320,227	175,27
320,434	173,22
320,642	156,84
320,849	128,17
321,056	138,41
321,264	126,12
321,471	148,65
321,678	156,84
321,885	122,02
322,092	128,17
322,3	97,45
322,507	58,54
322,714	187,56
322,921	91,31
323,128	119,98
323,336	85,16
323,543	193,7
323,75	197,8
323,957	197,8
324,164	99,5
324,371	185,51
324,578	74,92
324,786	165,03
324,993	162,98
325,2	140,46
325,407	13,48
325,614	165,03
325,821	208,04
326,028	230,57
326,235	111,78
326,442	124,07
326,649	70,83
326,856	138,41
327,063	91,31
327,27	173,22
327,477	117,93
327,684	107,69
327,891	101,55
328,098	154,79
328,305	226,47
328,512	171,18
328,719	162,98
328,926	326,82
329,133	144,55
329,34	230,57
329,546	203,94
329,753	136,36
329,96	101,55
330,167	160,94
330,374	212,14
330,581	201,9
330,788	146,6
330,995	179,37
331,201	152,74
331,408	124,07
331,615	99,5
331,822	115,88
332,029	99,5
332,235	160,94
332,442	81,07
332,649	169,13
332,856	119,98
333,062	185,51
333,269	113,83
333,476	173,22
333,683	197,8
333,889	177,32
334,096	148,65
334,303	160,94
334,509	144,55
334,716	140,46
334,923	205,99
335,129	95,4
335,336	195,75
335,543	154,79
335,749	177,32
335,956	232,62
336,163	122,02
336,369	150,7
336,576	156,84
336,782	144,55
336,989	189,61
337,196	195,75
337,402	165,03
337,609	146,6
337,815	148,65
338,022	214,18
338,228	175,27
338,435	296,1
338,641	259,24
338,848	257,19
339,054	189,61
339,261	185,51
339,467	122,02
339,674	150,7
339,88	214,18
340,087	171,18
340,293	171,18
340,5	124,07
340,706	214,18
340,912	122,02
341,119	154,79
341,325	165,03
341,532	238,76
341,738	181,42
341,944	160,94
342,151	171,18
342,357	236,71
342,563	263,33
342,77	140,46
342,976	158,89
343,182	361,64
343,389	251,05
343,595	205,99
343,801	167,08
344,007	246,95
344,214	162,98
344,42	236,71
344,626	263,33
344,832	228,52
345,039	226,47
345,245	187,56
345,451	160,94
345,657	255,14
345,864	165,03
346,07	181,42
346,276	255,14
346,482	273,57
346,688	279,72
346,894	240,81
347,1	277,67
347,307	183,46
347,513	312,49
347,719	244,9
347,925	169,13
348,131	150,7
348,337	289,96
348,543	246,95
348,749	169,13
348,955	285,86
349,161	199,85
349,367	320,68
349,573	328,87
349,779	285,86
349,985	238,76
350,191	189,61
350,397	189,61
350,603	224,42
350,809	298,15
351,015	257,19
351,221	287,91
351,427	306,34
351,633	267,43
351,839	298,15
352,045	240,81
352,251	312,49
352,457	246,95
352,663	228,52
352,869	214,18
353,075	251,05
353,28	328,87
353,486	222,38
353,692	246,95
353,898	261,29
354,104	242,85
354,31	283,81
354,515	281,77
354,721	339,11
354,927	312,49
355,133	302,25
355,339	298,15
355,544	357,54
355,75	326,82
355,956	369,83
356,162	259,24
356,367	222,38
356,573	304,29
356,779	249
356,984	296,1
357,19	341,16
357,396	337,06
357,602	433,32
357,807	322,73
358,013	433,32
358,218	378,02
358,424	310,44
358,63	304,29
358,835	296,1
359,041	281,77
359,247	310,44
359,452	326,82
359,658	304,29
359,863	337,06
360,069	330,92
360,274	363,69
360,48	398,5
360,685	367,78
360,891	324,77
361,097	304,29
361,302	296,1
361,508	464,04
361,713	400,55
361,918	439,46
362,124	371,88
362,329	326,82
362,535	353,45
362,74	345,25
362,946	365,73
363,151	345,25
363,357	433,32
363,562	367,78
363,767	314,53
363,973	394,4
364,178	353,45
364,383	449,7
364,589	423,08
364,794	400,55
365	386,21
365,205	425,12
365,41	396,45
365,615	474,28
365,821	328,87
366,026	457,89
366,231	445,6
366,437	492,71
366,642	400,55
366,847	527,52
367,052	416,93
367,258	386,21
367,463	466,08
367,668	365,73
367,873	484,52
368,078	457,89
368,284	365,73
368,489	429,22
368,694	472,23
368,899	525,47
369,104	435,36
369,309	468,13
369,515	435,36
369,72	568,48
369,925	466,08
370,13	488,61
370,335	533,67
370,54	439,46
370,745	470,18
370,95	548
371,155	515,23
371,36	507,04
371,565	496,8
371,77	539,81
371,975	435,36
372,18	640,16
372,385	523,43
372,59	603,3
372,795	480,42
373	588,96
373,205	480,42
373,41	566,43
373,615	509,09
373,82	408,74
374,025	492,71
374,23	459,94
374,435	568,48
374,64	607,39
374,845	595,11
375,05	558,24
375,254	605,35
375,459	537,76
375,664	504,99
375,869	562,34
376,074	529,57
376,279	484,52
376,483	541,86
376,688	488,61
376,893	681,12
377,098	519,33
377,303	591,01
377,507	582,82
377,712	681,12
377,917	611,49
378,122	574,63
378,326	679,07
378,531	552,1
378,736	554,15
378,94	617,63
379,145	611,49
379,35	543,91
379,554	578,72
379,759	562,34
379,964	689,31
380,168	578,72
380,373	572,58
380,578	728,22
380,782	679,07
380,987	607,39
381,191	709,79
381,396	687,26
381,601	703,65
381,805	629,92
382,01	615,59
382,214	654,5
382,419	644,26
382,623	644,26
382,828	693,41
383,032	580,77
383,237	582,82
383,441	605,35
383,646	648,35
383,85	629,92
384,055	722,08
384,259	711,84
384,464	728,22
384,668	525,47
384,872	648,35
385,077	652,45
385,281	713,89
385,486	656,54
385,69	679,07
385,894	687,26
386,099	728,22
386,303	701,6
386,507	832,67
386,712	754,85
386,916	713,89
387,12	664,74
387,325	867,49
387,529	816,29
387,733	855,2
387,937	752,8
388,142	767,13
388,346	715,94
388,55	742,56
388,754	799,9
388,959	744,61
389,163	769,18
389,367	795,81
389,571	763,04
389,775	773,28
389,98	844,96
390,184	728,22
390,388	795,81
390,592	781,47
390,796	711,84
391	744,61
391,204	754,85
391,409	842,91
391,613	832,67
391,817	824,48
392,021	984,22
392,225	810,14
392,429	789,66
392,633	836,77
392,837	902,3
393,041	885,92
393,245	849,05
393,449	910,49
393,653	957,6
393,857	902,3
394,061	922,78
394,265	1031,32
394,469	890,01
394,673	961,69
394,877	971,93
395,081	1049,75
395,285	1016,99
395,489	896,16
395,693	984,22
395,896	1010,84
396,1	1012,89
396,304	978,08
396,508	943,26
396,712	986,27
396,916	1006,75
397,12	1045,66
397,323	943,26
397,527	842,91
397,731	1082,52
397,935	988,32
398,139	1002,65
398,342	1086,62
398,546	955,55
398,75	1002,65
398,954	930,97
399,157	1088,67
399,361	1066,14
399,565	959,64
399,769	1121,43
399,972	1098,91
400,176	1078,43
400,38	1107,1
400,583	1090,71
400,787	1084,57
400,991	1178,78
401,194	1182,87
401,398	1053,85
401,601	1172,63
401,805	1154,2
402,009	1313,94
402,212	1213,59
402,416	1254,55
402,619	1182,87
402,823	1156,25
403,026	1162,39
403,23	1115,29
403,433	1318,04
403,637	1123,48
403,841	1238,17
404,044	1305,75
404,247	1336,47
404,451	1322,13
404,654	1277,08
404,858	1346,71
405,061	1234,07
405,265	1227,93
405,468	1404,05
405,672	1146,01
405,875	1344,66
406,078	1379,48
406,282	1277,08
406,485	1199,26
406,689	1324,18
406,892	1410,2
407,095	1227,93
407,299	1369,24
407,502	1352,85
407,705	1397,91
407,909	1262,74
408,112	1426,58
408,315	1379,48
408,518	1479,83
408,722	1457,3
408,925	1418,39
409,128	1504,4
409,331	1399,96
409,535	1547,41
409,738	1426,58
409,941	1639,57
410,144	1436,82
410,347	1490,07
410,551	1490,07
410,754	1465,49
410,957	1578,13
411,16	1623,19
411,363	1565,84
411,566	1498,26
411,769	1574,03
411,973	1590,42
412,176	1621,14
412,379	1737,87
412,582	1604,75
412,785	1569,94
412,988	1555,6
413,191	1633,43
413,394	1598,61
413,597	1664,15
413,8	1619,09
414,003	1801,36
414,206	1727,63
414,409	1684,62
414,612	1649,81
414,815	1617,04
415,018	1649,81
415,221	1639,57
415,424	1782,93
415,627	1772,69
415,83	1803,41
416,033	1735,82
416,235	1754,26
416,438	1877,13
416,641	1801,36
416,844	1875,09
417,047	1703,06
417,25	1758,35
417,453	1893,52
417,655	1688,72
417,858	1836,17
418,061	1795,22
418,264	1852,56
418,467	1809,55
418,669	1803,41
418,872	1862,8
419,075	1957
419,278	1877,13
419,48	1985,68
419,683	1858,7
419,886	1768,59
420,089	2008,2
420,291	1979,53
420,494	1926,29
420,697	1875,09
420,899	1957
421,102	1930,38
421,305	1979,53
421,507	1909,9
421,71	2049,16
421,912	2036,88
422,115	2032,78
422,318	2004,11
422,52	2032,78
422,723	2061,45
422,925	2147,47
423,128	2188,43
423,33	1909,9
423,533	1922,19
423,735	2147,47
423,938	2131,08
424,14	2135,18
424,343	2313,35
424,545	2147,47
424,748	2077,83
424,95	2040,97
425,153	2194,57
425,355	2174,09
425,558	2251,91
425,76	2258,06
425,962	2208,9
426,165	2131,08
426,367	2319,5
426,57	2360,45
426,772	2253,96
426,974	2503,81
427,177	2188,43
427,379	2247,82
427,581	2339,97
427,784	2407,56
427,986	2243,72
428,188	2374,79
428,39	2346,12
428,593	2331,78
428,795	2477,19
428,997	2495,62
429,2	2307,21
429,402	2610,31
429,604	2585,73
429,806	2337,93
430,008	2489,48
430,211	2501,76
430,413	2509,96
430,615	2528,39
430,817	2669,7
431,019	2638,98
431,221	2645,12
431,423	2538,63
431,626	2669,7
431,828	2655,36
432,03	2469
432,232	2731,14
432,434	2643,07
432,636	2833,54
432,838	2602,11
433,04	2720,9
433,242	2776,19
433,444	2729,09
433,646	2729,09
433,848	2759,81
434,05	2847,87
434,252	2833,54
434,454	2618,5
434,656	2825,34
434,858	2882,69
435,06	2868,35
435,262	2800,77
435,464	3009,66
435,666	3046,52
435,868	2886,78
436,07	3071,1
436,271	3171,45
436,473	2931,84
436,675	3026,04
436,877	3110,01
437,079	2917,5
437,281	2937,98
437,482	2987,13
437,684	3187,83
437,886	3044,48
438,088	3052,67
438,29	3087,48
438,491	3005,56
438,693	2915,45
438,895	3138,68
439,097	3406,97
