Data from USB4F035431__19__14-56-33-402.txt Node

Date: Wed Feb 12 14:56:33 CET 2025
User: Versuch 234
Spectrometer: USB4F03543
Trigger mode: 4
Integration Time (sec): 1,000000E-2
Scans to average: 5
Electric dark correction enabled: true
Nonlinearity correction enabled: false
Boxcar width: 0
XAxis mode: Wavelengths
Number of Pixels in Spectrum: 3648
>>>>>Begin Spectral Data<<<<<
179,969	-15,02
180,181	-15,02
180,394	-15,02
180,606	-7,24
180,819	-38,37
181,031	-31,81
181,243	-3,96
181,456	9,97
181,668	-2,32
181,88	18,57
182,093	0,96
182,305	-2,73
182,518	-8,87
182,73	-1,5
182,942	25,12
183,155	-17,89
183,367	14,47
183,579	2,18
183,791	14,47
184,004	-4,37
184,216	3,41
184,428	-3,55
184,641	3,41
184,853	-4,37
185,065	23,48
185,277	-21,57
185,49	18,16
185,702	7,1
185,914	-1,5
186,126	-12,97
186,338	4,64
186,551	3
186,763	9,97
186,975	-10,92
187,187	28,81
187,399	-18,3
187,612	1,77
187,824	-13,38
188,036	-9,28
188,248	-1,5
188,46	14,47
188,672	-12,56
188,885	37,82
189,097	-0,68
189,309	-4,78
189,521	-11,33
189,733	12,42
189,945	-11,74
190,157	-15,84
190,369	4,64
190,581	-30,99
190,794	-6,83
191,006	-33,45
191,218	0,96
191,43	23,07
191,642	-19,11
191,854	19,39
192,066	1,77
192,278	21,44
192,49	-17,07
192,702	5,87
192,914	-11,74
193,126	30,86
193,338	-3,96
193,55	13,24
193,762	1,77
193,974	-6,42
194,186	7,1
194,398	1,77
194,61	27,17
194,822	-5,19
195,034	-8,46
195,246	-4,37
195,457	-9,28
195,669	-17,48
195,881	15,29
196,093	-26,08
196,305	-2,73
196,517	15,7
196,729	-12,15
196,941	-3,96
197,153	-9,28
197,365	-11,33
197,576	-1,91
197,788	-6,83
198	20,21
198,212	22,25
198,424	-8,06
198,636	-18,3
198,847	-6,42
199,059	3
199,271	5,05
199,483	7,92
199,695	-21,16
199,906	16,93
200,118	3,82
200,33	16,11
200,542	57,89
200,753	-7,65
200,965	-8,46
201,177	-6,01
201,389	8,33
201,6	9,15
201,812	-9,28
202,024	23,48
202,235	2,59
202,447	17,75
202,659	32,49
202,871	-20,34
203,082	5,46
203,294	10,79
203,506	9,56
203,717	12,83
203,929	-11,74
204,141	18,98
204,352	-1,5
204,564	9,97
204,775	3,82
204,987	34,13
205,199	-2,32
205,41	35,36
205,622	1,77
205,833	9,15
206,045	10,79
206,257	32,9
206,468	10,38
206,68	10,38
206,891	-22,39
207,103	-20,34
207,314	16,11
207,526	-8,46
207,737	5,87
207,949	-5,6
208,16	7,1
208,372	27,99
208,583	9,56
208,795	12,42
209,006	-8,87
209,218	14,06
209,429	20,62
209,641	12,01
209,852	-19,93
210,064	7,1
210,275	-18,3
210,487	0,96
210,698	2,59
210,909	39,87
211,121	-23,62
211,332	30,86
211,544	26,76
211,755	22,25
211,966	-15,84
212,178	-7,65
212,389	18,57
212,6	-2,32
212,812	23,48
213,023	38,64
213,234	-12,97
213,446	5,05
213,657	-14,61
213,868	7,1
214,08	25,94
214,291	14,47
214,502	-9,28
214,714	18,16
214,925	5,05
215,136	8,33
215,347	-5,6
215,559	-0,27
215,77	-20,34
215,981	9,56
216,192	-10,92
216,404	16,11
216,615	4,64
216,826	0,14
217,037	-13,38
217,249	28,81
217,46	22,25
217,671	-23,62
217,882	0,14
218,093	0,96
218,304	-3,14
218,516	29,63
218,727	-12,97
218,938	19,39
219,149	4,64
219,36	-21,57
219,571	-4,37
219,782	9,15
219,993	-13,38
220,205	-11,74
220,416	-18,7
220,627	12,83
220,838	-10,51
221,049	30,86
221,26	-3,14
221,471	17,34
221,682	27,17
221,893	11,2
222,104	-4,78
222,315	-14,61
222,526	-25,67
222,737	-2,73
222,948	-2,73
223,159	25,12
223,37	9,15
223,581	-5,19
223,792	11,61
224,003	12,01
224,214	13,24
224,425	18,57
224,636	-22,8
224,847	-22,8
225,058	16,11
225,269	24,71
225,48	23,48
225,691	-15,84
225,902	8,33
226,112	-19,52
226,323	3,41
226,534	19,8
226,745	-30,17
226,956	16,11
227,167	-16,66
227,378	5,05
227,589	-19,52
227,799	-10,1
228,01	7,51
228,221	-0,68
228,432	-8,06
228,643	-6,83
228,853	17,75
229,064	-22,8
229,275	14,88
229,486	21,85
229,697	-10,51
229,907	8,33
230,118	-6,42
230,329	-9,28
230,54	-12,97
230,75	-1,09
230,961	0,96
231,172	-2,73
231,383	-3,55
231,593	-24,85
231,804	-8,46
232,015	-2,32
232,225	2,59
232,436	-4,37
232,647	42,32
232,857	-10,1
233,068	5,46
233,279	0,96
233,489	5,05
233,7	-29,35
233,91	-21,16
234,121	-18,7
234,332	0,14
234,542	-1,5
234,753	4,64
234,964	22,25
235,174	-8,87
235,385	9,56
235,595	-7,65
235,806	23,48
236,016	-8,06
236,227	-25,26
236,437	-6,01
236,648	24,3
236,858	-13,79
237,069	-18,7
237,279	6,28
237,49	-16,25
237,7	7,51
237,911	27,17
238,121	13,65
238,332	0,14
238,542	-8,87
238,753	4,23
238,963	-5,6
239,174	33,31
239,384	-1,09
239,595	5,05
239,805	-0,68
240,015	-8,46
240,226	8,33
240,436	2,18
240,647	-0,27
240,857	-6,42
241,067	-12,97
241,278	45,19
241,488	-13,38
241,698	-3,96
241,909	20,21
242,119	-14,61
242,329	7,92
242,54	3
242,75	21,44
242,96	-3,55
243,171	1,37
243,381	10,38
243,591	31,27
243,801	17,34
244,012	6,28
244,222	2,18
244,432	7,92
244,642	-8,46
244,853	7,92
245,063	23,89
245,273	11,61
245,483	11,61
245,694	0,14
245,904	4,23
246,114	3
246,324	1,77
246,534	22,66
246,744	3,41
246,955	0,96
247,165	34,13
247,375	-3,55
247,585	9,15
247,795	-5,6
248,005	3
248,215	7,92
248,425	2,18
248,636	7,51
248,846	-20,75
249,056	11,61
249,266	-2,32
249,476	-28,54
249,686	43,96
249,896	-6,83
250,106	-10,1
250,316	-10,92
250,526	17,34
250,736	22,66
250,946	39,05
251,156	0,96
251,366	6,28
251,576	-12,97
251,786	1,77
251,996	-15,43
252,206	46,42
252,416	37,82
252,626	4,23
252,836	23,89
253,046	-6,83
253,256	11,2
253,466	1,37
253,676	5,46
253,885	-14,61
254,095	3,82
254,305	7,51
254,515	-24,44
254,725	10,38
254,935	-3,14
255,145	-6,01
255,355	13,24
255,564	-3,96
255,774	-9,69
255,984	29,22
256,194	15,7
256,404	24,71
256,614	3,41
256,823	28,4
257,033	14,47
257,243	25,12
257,453	4,23
257,662	-5,19
257,872	5,87
258,082	-2,32
258,292	-19,93
258,501	27,99
258,711	16,93
258,921	10,79
259,131	-19,93
259,34	14,06
259,55	7,1
259,76	-12,56
259,969	23,07
260,179	-39,59
260,389	23,89
260,598	10,38
260,808	19,8
261,018	16,52
261,227	5,87
261,437	-30,99
261,647	0,96
261,856	18,16
262,066	9,97
262,275	18,16
262,485	-19,93
262,694	24,71
262,904	5,05
263,114	-8,87
263,323	-39,18
263,533	-12,15
263,742	4,64
263,952	-1,91
264,161	31,27
264,371	0,55
264,58	-15,02
264,79	22,25
264,999	26,35
265,209	16,11
265,418	15,7
265,628	-6,01
265,837	17,34
266,047	14,06
266,256	19,39
266,466	-2,73
266,675	-10,92
266,884	25,94
267,094	-9,69
267,303	-4,78
267,513	-10,51
267,722	8,33
267,931	-8,87
268,141	-7,65
268,35	9,56
268,559	-4,78
268,769	-6,01
268,978	3,82
269,187	9,15
269,397	-10,1
269,606	4,23
269,815	-21,57
270,025	-32,63
270,234	-15,02
270,443	-28,94
270,653	11,61
270,862	11,61
271,071	18,16
271,28	10,79
271,49	6,28
271,699	-24,44
271,908	19,39
272,117	14,88
272,327	5,46
272,536	13,24
272,745	33,31
272,954	-10,92
273,163	21,44
273,372	12,01
273,582	14,47
273,791	-6,42
274	8,33
274,209	0,55
274,418	3,82
274,627	13,65
274,836	1,77
275,046	1,77
275,255	-7,65
275,464	7,51
275,673	27,58
275,882	-3,96
276,091	1,77
276,3	16,52
276,509	18,57
276,718	5,05
276,927	-17,48
277,136	-10,1
277,345	-2,32
277,554	39,05
277,763	3
277,972	35,77
278,181	41,92
278,39	-6,83
278,599	7,51
278,808	-32,22
279,017	-7,24
279,226	-8,46
279,435	0,96
279,644	-7,24
279,853	29,22
280,062	34,54
280,271	0,55
280,48	-3,55
280,688	-4,78
280,897	-40,41
281,106	17,75
281,315	-6,83
281,524	27,99
281,733	14,47
281,942	10,38
282,151	-10,92
282,359	-10,1
282,568	-0,68
282,777	-8,87
282,986	9,56
283,195	10,79
283,403	13,24
283,612	-2,32
283,821	1,77
284,03	16,93
284,238	-7,24
284,447	16,52
284,656	12,01
284,865	4,23
285,073	7,51
285,282	-3,55
285,491	-3,96
285,699	-6,01
285,908	-15,02
286,117	0,14
286,325	-8,46
286,534	-6,01
286,743	-3,96
286,951	-20,75
287,16	-19,93
287,369	7,1
287,577	-8,06
287,786	32,9
287,995	14,06
288,203	-6,01
288,412	21,85
288,62	22,66
288,829	9,56
289,037	-8,46
289,246	34,54
289,455	-1,09
289,663	6,28
289,872	10,38
290,08	4,64
290,289	38,23
290,497	10,38
290,706	10,79
290,914	-35,09
291,123	-7,24
291,331	-34,27
291,54	7,92
291,748	24,3
291,957	-1,91
292,165	9,56
292,373	-17,07
292,582	33,31
292,79	11,61
292,999	-31,81
293,207	10,79
293,415	0,55
293,624	19,39
293,832	3,41
294,041	9,97
294,249	2,18
294,457	12,01
294,666	-30,99
294,874	-7,65
295,082	7,92
295,291	-2,73
295,499	-6,83
295,707	-19,11
295,915	-37,96
296,124	12,83
296,332	4,64
296,54	29,22
296,749	-2,73
296,957	-1,5
297,165	-13,79
297,373	-15,02
297,581	26,76
297,79	-1,91
297,998	-10,92
298,206	-13,38
298,414	-22,39
298,622	8,74
298,831	3
299,039	7,92
299,247	7,92
299,455	-6,42
299,663	24,3
299,871	7,1
300,08	2,59
300,288	-0,68
300,496	10,79
300,704	-1,09
300,912	9,15
301,12	9,15
301,328	18,16
301,536	5,05
301,744	-9,69
301,952	17,34
302,16	6,28
302,368	-22,8
302,576	15,29
302,784	39,46
302,992	-2,73
303,2	-7,24
303,408	-17,07
303,616	15,29
303,824	13,65
304,032	-8,46
304,24	-12,15
304,448	0,14
304,656	-15,02
304,864	23,89
305,072	-26,08
305,28	23,07
305,488	14,47
305,696	-3,55
305,904	57,48
306,111	32,08
306,319	5,05
306,527	14,88
306,735	18,98
306,943	2,18
307,151	0,55
307,359	12,83
307,566	0,55
307,774	14,88
307,982	5,87
308,19	6,28
308,398	-16,25
308,605	22,25
308,813	1,37
309,021	12,42
309,229	19,39
309,436	5,05
309,644	23,89
309,852	7,51
310,06	-3,96
310,267	37,41
310,475	-6,01
310,683	10,79
310,89	5,87
311,098	5,87
311,306	-4,37
311,513	-1,09
311,721	-12,15
311,929	-22,39
312,136	-12,56
312,344	-17,48
312,552	-18,7
312,759	-24,85
312,967	28,4
313,174	8,74
313,382	-0,27
313,589	0,55
313,797	22,25
314,005	19,39
314,212	-33,86
314,42	17,75
314,627	9,97
314,835	16,11
315,042	5,05
315,25	10,38
315,457	-3,96
315,665	-1,09
315,872	-27,72
316,08	-17,07
316,287	0,55
316,495	46,83
316,702	3
316,909	16,52
317,117	27,99
317,324	14,88
317,532	5,46
317,739	-16,66
317,946	-15,02
318,154	12,01
318,361	12,01
318,569	21,44
318,776	-9,69
318,983	14,88
319,191	3,82
319,398	-22,39
319,605	12,83
319,813	22,25
320,02	-11,33
320,227	17,75
320,434	9,15
320,642	15,7
320,849	2,59
321,056	25,53
321,264	-10,51
321,471	17,34
321,678	0,14
321,885	8,33
322,092	7,92
322,3	37,41
322,507	-24,03
322,714	-2,73
322,921	-8,46
323,128	15,29
323,336	3,82
323,543	-10,1
323,75	-16,25
323,957	7,1
324,164	-23,62
324,371	5,05
324,578	-7,65
324,786	-6,01
324,993	-16,66
325,2	-16,25
325,407	4,23
325,614	-22,8
325,821	-10,51
326,028	-13,38
326,235	-9,69
326,442	-10,92
326,649	-15,84
326,856	-14,61
327,063	-21,57
327,27	4,23
327,477	-35,09
327,684	-10,1
327,891	-8,06
328,098	0,96
328,305	-9,28
328,512	-1,91
328,719	21,85
328,926	0,14
329,133	7,1
329,34	14,47
329,546	-21,98
329,753	6,69
329,96	9,97
330,167	7,92
330,374	14,88
330,581	13,65
330,788	-15,02
330,995	-9,28
331,201	24,71
331,408	2,59
331,615	7,92
331,822	-24,44
332,029	-19,93
332,235	0,96
332,442	-25,67
332,649	13,24
332,856	1,37
333,062	-14,2
333,269	-25,26
333,476	-6,83
333,683	-23,62
333,889	3,41
334,096	-19,11
334,303	46,83
334,509	-9,69
334,716	16,93
334,923	15,29
335,129	7,92
335,336	-8,06
335,543	-9,28
335,749	4,64
335,956	9,97
336,163	19,8
336,369	-8,87
336,576	-2,32
336,782	7,1
336,989	-11,33
337,196	14,47
337,402	-0,68
337,609	0,96
337,815	-8,46
338,022	2,59
338,228	11,61
338,435	23,89
338,641	-8,46
338,848	13,65
339,054	4,64
339,261	-12,97
339,467	0,96
339,674	21,85
339,88	0,96
340,087	-6,83
340,293	2,59
340,5	16,11
340,706	-7,24
340,912	-19,93
341,119	-15,84
341,325	21,44
341,532	23,07
341,738	-3,14
341,944	11,2
342,151	-10,92
342,357	-8,06
342,563	35,36
342,77	-25,67
342,976	17,34
343,182	24,3
343,389	-28,94
343,595	10,38
343,801	14,06
344,007	6,28
344,214	9,56
344,42	-9,28
344,626	18,16
344,832	5,87
345,039	3,41
345,245	18,57
345,451	9,97
345,657	-7,24
345,864	17,34
346,07	10,38
346,276	9,56
346,482	0,55
346,688	17,75
346,894	4,64
347,1	21,44
347,307	-17,48
347,513	0,14
347,719	30,04
347,925	12,01
348,131	0,55
348,337	2,59
348,543	-14,61
348,749	14,88
348,955	18,98
349,161	7,92
349,367	-9,28
349,573	7,92
349,779	9,97
349,985	6,28
350,191	-21,57
350,397	-0,68
350,603	-24,44
350,809	-4,78
351,015	-24,03
351,221	-17,89
351,427	-24,85
351,633	32,9
351,839	3
352,045	3
352,251	46,83
352,457	8,33
352,663	0,96
352,869	5,87
353,075	18,57
353,28	-35,5
353,486	-2,32
353,692	4,64
353,898	-13,38
354,104	-3,96
354,31	23,48
354,515	-17,89
354,721	12,01
354,927	0,14
355,133	-11,33
355,339	17,34
355,544	-15,84
355,75	18,16
355,956	10,79
356,162	32,9
356,367	6,28
356,573	14,06
356,779	-0,68
356,984	18,16
357,19	0,14
357,396	9,97
357,602	22,66
357,807	-7,65
358,013	4,64
358,218	-3,14
358,424	6,28
358,63	-29,35
358,835	-7,65
359,041	-1,5
359,247	-9,28
359,452	10,79
359,658	3,82
359,863	39,87
360,069	32,08
360,274	4,23
360,48	-10,1
360,685	5,87
360,891	-0,68
361,097	12,01
361,302	-1,91
361,508	24,3
361,713	34,13
361,918	13,24
362,124	9,15
362,329	14,06
362,535	22,66
362,74	4,64
362,946	-15,43
363,151	21,03
363,357	18,57
363,562	1,77
363,767	-25,26
363,973	31,68
364,178	-0,27
364,383	-30,58
364,589	-6,01
364,794	23,48
365	-6,83
365,205	28,81
365,41	3,82
365,615	25,12
365,821	16,93
366,026	-6,01
366,231	18,98
366,437	-5,19
366,642	-11,33
366,847	-3,14
367,052	-7,24
367,258	0,55
367,463	12,83
367,668	24,71
367,873	16,52
368,078	2,18
368,284	-22,39
368,489	35,36
368,694	8,74
368,899	4,64
369,104	-12,56
369,309	-1,09
369,515	-26,08
369,72	12,83
369,925	-8,87
370,13	5,05
370,335	27,99
370,54	23,07
370,745	-3,96
370,95	-12,97
371,155	14,06
371,36	43,55
371,565	-5,6
371,77	21,44
371,975	21,85
372,18	9,97
372,385	18,57
372,59	8,74
372,795	-16,66
373	22,66
373,205	11,61
373,41	26,76
373,615	-9,69
373,82	-17,89
374,025	-2,73
374,23	-19,93
374,435	0,96
374,64	2,18
374,845	-9,69
375,05	19,39
375,254	-7,65
375,459	0,96
375,664	1,37
375,869	2,59
376,074	-5,19
376,279	4,23
376,483	-1,09
376,688	32,08
376,893	-21,98
377,098	-1,09
377,303	-5,6
377,507	-12,56
377,712	16,52
377,917	-4,78
378,122	-9,28
378,326	22,25
378,531	0,96
378,736	1,37
378,94	34,13
379,145	14,88
379,35	34,54
379,554	24,3
379,759	-5,19
379,964	26,76
380,168	-11,74
380,373	32,08
380,578	-9,69
380,782	14,47
380,987	-30,58
381,191	46,01
381,396	-35,09
381,601	42,32
381,805	36,18
382,01	19,8
382,214	25,53
382,419	8,74
382,623	3,41
382,828	-6,01
383,032	-1,09
383,237	-8,06
383,441	-3,96
383,646	-17,07
383,85	-7,65
384,055	-18,3
384,259	3,41
384,464	5,46
384,668	14,06
384,872	18,57
385,077	-7,24
385,281	-19,52
385,486	9,15
385,69	1,77
385,894	22,66
386,099	8,74
386,303	5,46
386,507	25,53
386,712	16,52
386,916	11,2
387,12	19,39
387,325	5,05
387,529	-35,5
387,733	7,51
387,937	-10,92
388,142	-10,1
388,346	-18,7
388,55	7,51
388,754	10,79
388,959	21,03
389,163	9,15
389,367	8,74
389,571	-21,57
389,775	12,42
389,98	-5,6
390,184	20,62
390,388	-3,96
390,592	-22,39
390,796	-2,73
391	20,62
391,204	-26,49
391,409	1,77
391,613	17,75
391,817	-11,33
392,021	-17,48
392,225	-15,84
392,429	-6,01
392,633	6,69
392,837	-6,42
393,041	-2,32
393,245	3,82
393,449	-8,06
393,653	3,41
393,857	-12,97
394,061	1,37
394,265	16,93
394,469	-14,2
394,673	19,39
394,877	3,82
395,081	28,4
395,285	28,4
395,489	7,51
395,693	-13,38
395,896	-1,5
396,1	-14,61
396,304	-21,57
396,508	-24,44
396,712	0,55
396,916	12,42
397,12	-7,24
397,323	24,3
397,527	32,08
397,731	16,52
397,935	-1,5
398,139	19,8
398,342	-9,69
398,546	-3,55
398,75	-15,02
398,954	6,28
399,157	21,03
399,361	13,24
399,565	-1,91
399,769	-5,6
399,972	4,23
400,176	12,83
400,38	-2,32
400,583	18,98
400,787	8,33
400,991	-12,97
401,194	33,31
401,398	-3,14
401,601	5,46
401,805	13,65
402,009	-23,21
402,212	7,92
402,416	-10,1
402,619	-15,84
402,823	-40,41
403,026	32,9
403,23	12,42
403,433	-18,3
403,637	22,25
403,841	-10,92
404,044	15,7
404,247	2,18
404,451	12,83
404,654	-12,56
404,858	15,29
405,061	6,28
405,265	10,79
405,468	-9,69
405,672	3
405,875	-17,07
406,078	-1,5
406,282	-10,51
406,485	2,59
406,689	14,06
406,892	5,87
407,095	-10,51
407,299	2,59
407,502	27,17
407,705	13,24
407,909	-18,7
408,112	5,87
408,315	16,11
408,518	-13,79
408,722	16,93
408,925	5,46
409,128	27,99
409,331	0,55
409,535	41,51
409,738	-26,9
409,941	9,56
410,144	-11,74
410,347	9,97
410,551	15,29
410,754	6,69
410,957	4,64
411,16	5,87
411,363	-0,27
411,566	21,03
411,769	4,23
411,973	4,23
412,176	18,98
412,379	14,06
412,582	-37,55
412,785	9,15
412,988	5,46
413,191	-15,84
413,394	-10,1
413,597	11,2
413,8	-19,93
414,003	27,58
414,206	-17,07
414,409	21,85
414,612	39,05
414,815	17,34
415,018	20,21
415,221	14,47
415,424	19,8
415,627	16,52
415,83	19,39
416,033	13,24
416,235	4,23
416,438	18,16
416,641	28,81
416,844	-9,28
417,047	-3,55
417,25	-4,78
417,453	28,81
417,655	-18,7
417,858	5,46
418,061	-5,6
418,264	11,2
418,467	14,06
418,669	26,35
418,872	12,01
419,075	0,55
419,278	1,37
419,48	21,03
419,683	21,03
419,886	-12,15
420,089	7,51
420,291	5,46
420,494	8,33
420,697	-8,06
420,899	9,97
421,102	-10,1
421,305	7,1
421,507	11,61
421,71	-3,14
421,912	6,28
422,115	-19,93
422,318	17,34
422,52	3
422,723	16,11
422,925	9,97
423,128	5,05
423,33	-1,91
423,533	-8,06
423,735	8,74
423,938	-1,09
424,14	14,47
424,343	7,1
424,545	1,77
424,748	-11,74
424,95	-3,96
425,153	17,75
425,355	-11,74
425,558	27,99
425,76	13,24
425,962	23,48
426,165	-1,91
426,367	-12,56
426,57	-2,32
426,772	1,77
426,974	-16,66
427,177	30,04
427,379	24,71
427,581	14,06
427,784	5,46
427,986	-15,02
428,188	-13,79
428,39	36,59
428,593	-4,78
428,795	9,56
428,997	-1,5
429,2	4,64
429,402	-8,06
429,604	21,85
429,806	13,65
430,008	-10,92
430,211	-13,79
430,413	-2,32
430,615	20,62
430,817	2,59
431,019	-6,01
431,221	27,17
431,423	-11,74
431,626	27,99
431,828	-39,18
432,03	9,15
432,232	11,61
432,434	21,85
432,636	-1,5
432,838	-20,34
433,04	19,8
433,242	8,74
433,444	-17,48
433,646	0,55
433,848	-8,87
434,05	-30,99
434,252	8,33
434,454	22,66
434,656	8,33
434,858	-12,56
435,06	3,82
435,262	3
435,464	5,87
435,666	4,23
435,868	-7,24
436,07	27,17
436,271	-14,61
436,473	-21,16
436,675	-5,19
436,877	11,2
437,079	11,61
437,281	7,51
437,482	8,33
437,684	22,66
437,886	-20,34
438,088	4,64
438,29	10,38
438,491	34,54
438,693	-5,19
438,895	-13,79
439,097	9,97
439,298	-4,78
439,5	-2,32
439,702	12,01
439,903	-20,34
440,105	24,71
440,307	35,77
440,508	7,1
440,71	4,23
440,912	-19,52
441,113	9,15
441,315	9,15
441,517	-26,9
441,718	-3,96
441,92	-2,73
442,121	-8,06
442,323	-2,32
442,524	11,2
442,726	-8,06
442,928	31,68
443,129	12,01
443,331	-18,7
443,532	22,66
443,734	-1,09
443,935	33,72
444,136	-2,32
444,338	-5,19
444,539	-3,96
444,741	15,29
444,942	-6,42
445,144	1,37
445,345	12,83
445,546	-6,01
445,748	16,11
445,949	-5,19
446,151	-14,61
446,352	3,82
446,553	26,35
446,755	22,25
446,956	-8,06
447,157	10,79
447,359	9,97
447,56	0,96
447,761	5,05
447,962	11,61
448,164	14,06
448,365	15,29
448,566	10,38
448,767	-33,04
448,969	0,55
449,17	4,64
449,371	2,18
449,572	-21,57
449,773	25,94
449,974	-20,34
450,176	-22,8
450,377	5,05
450,578	-11,74
450,779	-1,5
450,98	-1,91
451,181	10,79
451,382	-8,87
451,583	0,55
451,784	7,51
451,986	-27,31
452,187	15,7
452,388	2,59
452,589	21,85
452,79	-4,78
452,991	37,82
453,192	7,92
453,393	14,88
453,594	-15,02
453,795	5,87
453,995	4,23
454,196	36,59
454,397	-8,87
454,598	-1,91
454,799	-0,27
455	-15,02
455,201	-10,92
455,402	-16,66
455,603	-41,64
455,804	48,88
