Data from USB4F035431__16__14-43-55-516.txt Node

Date: Wed Feb 12 14:43:55 CET 2025
User: Versuch 234
Spectrometer: USB4F03543
Trigger mode: 4
Integration Time (sec): 1,000000E-1
Scans to average: 40
Electric dark correction enabled: true
Nonlinearity correction enabled: false
Boxcar width: 0
XAxis mode: Wavelengths
Number of Pixels in Spectrum: 3648
>>>>>Begin Spectral Data<<<<<
179,969	-174,91
180,181	-174,91
180,394	-174,91
180,606	-182,79
180,819	-174,14
181,031	27,07
181,243	70,64
181,456	-54,9
181,668	41,87
181,88	32,91
182,093	-19,57
182,305	-63,14
182,518	-25,77
182,73	40,49
182,942	-7,18
183,155	-41,48
183,367	-0,93
183,579	35,52
183,791	270,68
184,004	314,5
184,216	325,31
184,428	318,65
184,641	330,22
184,853	286,91
185,065	299,09
185,277	343,12
185,49	353,36
185,702	276,51
185,914	257,67
186,126	314,56
186,338	347,27
186,551	319,52
186,763	343,59
186,975	296,28
187,187	332,17
187,399	293,82
187,612	326,89
187,824	297,35
188,036	325,97
188,248	358,74
188,46	353,83
188,672	353,36
188,885	297,56
189,097	383,47
189,309	295,25
189,521	319,11
189,733	349,73
189,945	329,66
190,157	350,96
190,369	290,54
190,581	305,13
190,794	358,79
191,006	280,61
191,218	312
191,43	341,38
191,642	275,95
191,854	328,53
192,066	368,01
192,278	353,11
192,49	277,79
192,702	304,62
192,914	342,87
193,126	352,95
193,338	336,67
193,55	337,34
193,762	370,67
193,974	280,51
194,186	312,71
194,398	304,32
194,61	328,89
194,822	373,38
195,034	368,52
195,246	391,61
195,457	371,34
195,669	476,19
195,881	438,35
196,093	412,19
196,305	440,15
196,517	362,38
196,729	453,2
196,941	347,63
197,153	423,51
197,365	407,43
197,576	303,34
197,788	282,4
198	364,22
198,212	396,93
198,424	358,84
198,636	290,34
198,847	296,74
199,059	352,49
199,271	313,02
199,483	341,59
199,695	344,2
199,906	378,5
200,118	296,74
200,33	392,07
200,542	690,61
200,753	322,08
200,965	323,31
201,177	361,61
201,389	380,96
201,6	296,12
201,812	336,01
202,024	322,08
202,235	295,97
202,447	368,06
202,659	381,68
202,871	329,97
203,082	322,7
203,294	306,31
203,506	355,72
203,717	341,74
203,929	364,83
204,141	308
204,352	392,17
204,564	291,21
204,775	322,08
204,987	400,42
205,199	355,21
205,41	334,88
205,622	376,25
205,833	309,69
206,045	359,2
206,257	323,62
206,468	304,67
206,68	292,39
206,891	308,41
207,103	293,41
207,314	266,43
207,526	346,3
207,737	303,75
207,949	341,18
208,16	350,24
208,372	358,18
208,583	340,36
208,795	340,36
209,006	339,8
209,218	370,98
209,429	296,99
209,641	331,25
209,852	323,46
210,064	368,47
210,275	319,73
210,487	370,46
210,698	391,35
210,909	345,07
211,121	345,02
211,332	350,45
211,544	377,68
211,755	392,48
211,966	395,3
212,178	321,11
212,389	468,31
212,6	337,9
212,812	441,73
213,023	367,34
213,234	377,22
213,446	373,59
213,657	290,08
213,868	387,05
214,08	424,94
214,291	361,97
214,502	354,03
214,714	277,23
214,925	333,29
215,136	339,59
215,347	334,73
215,559	304,98
215,77	305,24
215,981	395,6
216,192	305,54
216,404	339,08
216,615	369,9
216,826	365,5
217,037	333,35
217,249	378,61
217,46	424,17
217,671	341,08
217,882	332,37
218,093	348,71
218,304	343,64
218,516	368,42
218,727	315,43
218,938	317,22
219,149	454,33
219,36	370,26
219,571	363,4
219,782	330,68
219,993	408,97
220,205	322,8
220,416	393,81
220,627	356,95
220,838	402,62
221,049	487,51
221,26	400,98
221,471	341,79
221,682	383,98
221,893	413,63
222,104	290,49
222,315	286,09
222,526	302,93
222,737	350,6
222,948	318,14
223,159	366,11
223,37	369,75
223,581	335,5
223,792	311,38
224,003	336,83
224,214	319,16
224,425	357,72
224,636	298,63
224,847	388,49
225,058	356,59
225,269	364,83
225,48	332,94
225,691	319,32
225,902	382,91
226,112	342,31
226,323	313,89
226,534	364,42
226,745	341,59
226,956	348,19
227,167	340,67
227,378	378,5
227,589	353,26
227,799	461,75
228,01	386,29
228,221	347,02
228,432	407,07
228,643	379,42
228,853	435,33
229,064	444,65
229,275	506,6
229,486	500,51
229,697	521,6
229,907	518,43
230,118	536,66
230,329	450,64
230,54	422,02
230,75	424,99
230,961	439,48
231,172	351,78
231,383	328,58
231,593	338,16
231,804	340,1
232,015	385,36
232,225	389,82
232,436	379,73
232,647	425,4
232,857	435,74
233,068	386,75
233,279	444,5
233,489	396,58
233,7	421,31
233,91	410,3
234,121	417,36
234,332	437,69
234,542	454,69
234,753	445,06
234,964	487,51
235,174	468,77
235,385	536,5
235,595	504,04
235,806	556,52
236,016	482,34
236,227	492,73
236,437	476,65
236,648	528,41
236,858	539,42
237,069	507,06
237,279	528,31
237,49	535,74
237,7	567,79
237,911	558,67
238,121	526,98
238,332	547,46
238,542	611,15
238,753	582,99
238,963	561,75
239,174	612,53
239,384	602,6
239,595	604,34
239,805	584,12
240,015	605,11
240,226	578,38
240,436	621,6
240,647	623,85
240,857	591,54
241,067	630,51
241,278	759,89
241,488	591,34
241,698	645,25
241,909	583,86
242,119	608,08
242,329	612,38
242,54	645,51
242,75	599,84
242,96	584,27
243,171	625,13
243,381	654,42
243,591	603,73
243,801	704,49
244,012	723,48
244,222	655,13
244,432	593,9
244,642	655,18
244,853	642,43
245,063	661,33
245,273	705,21
245,483	678,27
245,694	665,27
245,904	686,01
246,114	733,36
246,324	661,53
246,534	718,11
246,744	682,22
246,955	636,85
247,165	781,39
247,375	799,31
247,585	710,79
247,795	736,9
248,005	763,37
248,215	806,12
248,425	792,24
248,636	902,37
248,846	734,34
249,056	765,06
249,266	743,2
249,476	781,18
249,686	795,37
249,896	736,44
250,106	768,64
250,316	772,07
250,526	885,78
250,736	745,65
250,946	859,62
251,156	840,52
251,366	798,18
251,576	832,54
251,786	858,65
251,996	765,62
252,206	750,67
252,416	798,59
252,626	729,27
252,836	733,88
253,046	790,2
253,256	834,02
253,466	793,42
253,676	797,21
253,885	833,92
254,095	781,18
254,305	802,74
254,515	810,52
254,725	775,76
254,935	762,29
255,145	805,56
255,355	791,02
255,564	749,9
255,774	747,44
255,984	807,65
256,194	775,6
256,404	754,31
256,614	790,35
256,823	830,69
257,033	780,21
257,243	819,17
257,453	787,33
257,662	782,26
257,872	818,1
258,082	778,57
258,292	728,86
258,501	873,5
258,711	929,2
258,921	833,82
259,131	719,03
259,34	733,21
259,55	768,79
259,76	735,05
259,969	739,87
260,179	721,54
260,389	740,64
260,598	818,92
260,808	807,76
261,018	742,63
261,227	817,54
261,437	730,45
261,647	800,54
261,856	714,22
262,066	762,75
262,275	821,33
262,485	736,03
262,694	777,29
262,904	751,08
263,114	791,32
263,323	730,14
263,533	739,71
263,742	732,55
263,952	746,83
264,161	683,96
264,371	729,93
264,58	741,45
264,79	707,56
264,999	752,15
265,209	769,36
265,418	751,54
265,628	730,24
265,837	734,95
266,047	734,59
266,256	791,12
266,466	686,36
266,675	701,72
266,884	700,29
267,094	726,3
267,303	769,1
267,513	728,86
267,722	778,98
267,931	729,37
268,141	695,37
268,35	727,17
268,559	757,63
268,769	679,3
268,978	648,17
269,187	715,91
269,397	694,5
269,606	660,92
269,815	656,57
270,025	714,88
270,234	703,82
270,443	636,09
270,653	668,75
270,862	691,02
271,071	692,15
271,28	658,72
271,49	690,72
271,699	651,8
271,908	713,76
272,117	685,14
272,327	674,38
272,536	669,93
272,745	664,25
272,954	636,39
273,163	681,76
273,372	717,24
273,582	627,18
273,791	662,1
274	642,49
274,209	635,01
274,418	703,36
274,627	707,56
274,836	619,14
275,046	633,94
275,255	626,36
275,464	574,24
275,673	567,12
275,882	599,89
276,091	515,46
276,3	553,3
276,509	503,74
276,718	483,41
276,927	434,98
277,136	477,57
277,345	451,26
277,554	464,62
277,763	490,17
277,972	464,16
278,181	462,83
278,39	408,25
278,599	442,45
278,808	427,76
279,017	494,47
279,226	410,81
279,435	466,46
279,644	472,71
279,853	504,3
280,062	555,5
280,271	411,12
280,48	431,14
280,688	427,14
280,897	484,54
281,106	403,18
281,315	392,33
281,524	431,85
281,733	444,45
281,942	438,15
282,151	467,59
282,359	493,24
282,568	423
282,777	499,08
282,986	502,2
283,195	583,1
283,403	655,39
283,612	713,19
283,821	792,5
284,03	794,29
284,238	818,56
284,447	772,69
284,656	611,61
284,865	592,82
285,073	459,86
285,282	445,93
285,491	432,36
285,699	370,98
285,908	418,44
286,117	414,14
286,325	426,68
286,534	496,52
286,743	441,12
286,951	424,79
287,16	465,18
287,369	407,12
287,577	434,36
287,786	406,92
287,995	426,99
288,203	387,21
288,412	449,21
288,62	418,75
288,829	393,86
289,037	419,56
289,246	420,54
289,455	430,52
289,663	461,19
289,872	487,4
290,08	448,39
290,289	508,4
290,497	406,46
290,706	450,95
290,914	391,41
291,123	418,03
291,331	451,05
291,54	549,71
291,748	554,78
291,957	473,84
292,165	439,02
292,373	401,08
292,582	420,33
292,79	459,76
292,999	464,57
293,207	450,08
293,415	414,19
293,624	380,09
293,832	433,8
294,041	460,37
294,249	424,22
294,457	409,48
294,666	437,89
294,874	379,27
295,082	471,94
295,291	471,63
295,499	442,5
295,707	467,13
295,915	458,22
296,124	502,15
296,332	471,12
296,54	482,85
296,749	524,57
296,957	485,92
297,165	466,77
297,373	434,26
297,581	446,09
297,79	459,96
297,998	415,72
298,206	425,15
298,414	442,45
298,622	474,5
298,831	488,73
299,039	428,99
299,247	492,22
299,455	495,6
299,663	519,1
299,871	470,05
300,08	443,01
300,288	458,94
300,496	459,81
300,704	446,24
300,912	466,21
301,12	468,82
301,328	451
301,536	450,85
301,744	413,93
301,952	497,59
302,16	413,83
302,368	455,87
302,576	499,49
302,784	534,66
302,992	448,44
303,2	539,32
303,408	606,7
303,616	674,38
303,824	862,85
304,032	934,27
304,24	982,3
304,448	906,11
304,656	784,97
304,864	776,58
305,072	639,93
305,28	580,79
305,488	509,83
305,696	513,52
305,904	504,04
306,111	408,4
306,319	466,57
306,527	506,3
306,735	515,05
306,943	499,44
307,151	481,16
307,359	447,31
307,566	542,95
307,774	531,13
307,982	522,32
308,19	472,35
308,398	509,16
308,605	511,11
308,813	484,9
309,021	535,63
309,229	551,35
309,436	490,58
309,644	521,96
309,852	524,22
310,06	578,9
310,267	455,66
310,475	480,8
310,683	496,72
310,89	494,52
311,098	537,12
311,306	480,95
311,513	531,84
311,721	439,74
311,929	504,25
312,136	474,4
312,344	472,91
312,552	533,53
312,759	455,66
312,967	527,9
313,174	538,55
313,382	507,47
313,589	530,21
313,797	566,51
314,005	520,32
314,212	519,76
314,42	437,79
314,627	474,09
314,835	475,73
315,042	497,34
315,25	431,55
315,457	459,4
315,665	426,17
315,872	552,07
316,08	545,92
316,287	480,8
316,495	803,2
316,702	466,1
316,909	459,55
317,117	551,15
317,324	511,11
317,532	568,3
317,739	487,66
317,946	496,11
318,154	479,47
318,361	484,23
318,569	549,51
318,776	496,26
318,983	478,44
319,191	550,79
319,398	508,65
319,605	526,26
319,813	558,11
320,02	468,41
320,227	628,82
320,434	590,42
320,642	561,64
320,849	550,84
321,056	588,06
321,264	596,82
321,471	586,94
321,678	591,03
321,885	563,84
322,092	612,59
322,3	584,78
322,507	536,61
322,714	597,53
322,921	544,54
323,128	537,99
323,336	559,08
323,543	613,97
323,75	620,01
323,957	598,51
324,164	601,22
324,371	608,29
324,578	512,64
324,786	634,6
324,993	566,46
325,2	602,09
325,407	503,48
325,614	587,81
325,821	657,33
326,028	712,94
326,235	645,3
326,442	608,64
326,649	581,3
326,856	660,1
327,063	610,13
327,27	632,45
327,477	677,81
327,684	676,69
327,891	758,45
328,098	1014,86
328,305	1639,85
328,512	2634,19
328,719	5299,72
328,926	9481,31
329,133	17519,64
329,34	29479,01
329,546	47295,11
329,753	59094,33
329,96	64151,53
330,167	63244,74
330,374	60780,22
330,581	44243,79
330,788	26867,7
330,995	16706,19
331,201	9880,57
331,408	5104,96
331,615	2799,25
331,822	1580,51
332,029	1175,67
332,235	959
332,442	842,06
332,649	788,4
332,856	730,24
333,062	723,18
333,269	702,03
333,476	736,8
333,683	700,44
333,889	726,2
334,096	693,58
334,303	739,36
334,509	676,58
334,716	700,19
334,923	697,17
335,129	637,21
335,336	713,5
335,543	663,73
335,749	669,88
335,956	746,68
336,163	624,05
336,369	696,4
336,576	701,21
336,782	706,69
336,989	643
337,196	684,93
337,402	631,53
337,609	642,43
337,815	669,31
338,022	720,72
338,228	708,23
338,435	820,71
338,641	724,35
338,848	790,91
339,054	744,17
339,261	675,3
339,467	659,13
339,674	731,27
339,88	719,59
340,087	702,9
340,293	677,61
340,5	700,96
340,706	734,13
340,912	653,08
341,119	666,45
341,325	685,44
341,532	684,32
341,738	689,9
341,944	754,25
342,151	732,39
342,357	704,49
342,563	761,93
342,77	706,49
342,976	693,53
343,182	824,91
343,389	712,63
343,595	701,37
343,801	692,56
344,007	743,55
344,214	668,5
344,42	722,66
344,626	719,9
344,832	701,52
345,039	736,13
345,245	746,63
345,451	710,84
345,657	764,6
345,864	689,64
346,07	747,75
346,276	768,03
346,482	833,56
346,688	776,37
346,894	710,12
347,1	764,19
347,307	746,32
347,513	804,43
347,719	733,93
347,925	772,02
348,131	687,39
348,337	834,07
348,543	725,07
348,749	724,66
348,955	814,11
349,161	721,95
349,367	766,7
349,573	824,45
349,779	816,87
349,985	774,73
350,191	747,91
350,397	790,4
350,603	812,01
350,809	757,38
351,015	810,32
351,221	758,76
351,427	815,69
351,633	798,7
351,839	821,22
352,045	791,42
352,251	871,19
352,457	814,72
352,663	815,13
352,869	803,46
353,075	808,73
353,28	768,79
353,486	807,55
353,692	804,69
353,898	795,37
354,104	804,17
354,31	882,25
354,515	827,88
354,721	927,97
354,927	925,05
355,133	973,08
355,339	948,25
355,544	962,33
355,75	956,75
355,956	939,49
356,162	938,72
356,367	921,11
356,573	959,61
356,779	896,9
356,984	972,16
357,19	998,58
357,396	1010,61
357,602	1155,3
357,807	1108,04
358,013	1191,39
358,218	1262,46
358,424	1255,39
358,63	1251,19
358,835	1255,24
359,041	1160,98
359,247	1118,69
359,452	1018,7
359,658	990,54
359,863	1022,18
360,069	996,07
360,274	986,49
360,48	1038,26
360,685	951,93
360,891	956,34
361,097	871,91
361,302	893,87
361,508	954,24
361,713	895,46
361,918	992,18
362,124	881,23
362,329	920,45
362,535	928,18
362,74	927,1
362,946	962,28
363,151	951,78
363,357	944
363,562	915,28
363,767	879,13
363,973	973,85
364,178	913,48
364,383	904,88
364,589	946,97
364,794	894,03
365	978,87
365,205	982,4
365,41	939,08
365,615	994,02
365,821	911,38
366,026	988,13
366,231	961
366,437	984,24
366,642	878,26
366,847	999,04
367,052	963,76
367,258	919,88
367,463	919,83
367,668	935,55
367,873	1023,15
368,078	1017,83
368,284	898,02
368,489	941,39
368,694	1005,85
368,899	1002,06
369,104	976,56
369,309	962,33
369,515	925,52
369,72	1003,59
369,925	913,64
370,13	996,02
370,335	1006,67
370,54	943,84
370,745	977,74
370,95	979,43
371,155	1043,63
371,36	983,88
371,565	1003,18
371,77	1008,92
371,975	926,69
372,18	1028,22
372,385	1038,05
372,59	1006,26
372,795	970,57
373	1029,14
373,205	1023,87
373,41	999,65
373,615	954,03
373,82	934,68
374,025	984,86
374,23	939,44
374,435	1009,99
374,64	1032,16
374,845	1028,12
375,05	1004,31
375,254	974,87
375,459	958,49
375,664	984,34
375,869	1005,59
376,074	981,27
376,279	992,54
376,483	1021,77
376,688	972,87
376,893	1062,58
377,098	992,94
377,303	1031,55
377,507	1042,15
377,712	1106,61
377,917	1058,58
378,122	1065,8
378,326	999,91
378,531	979,38
378,736	974,36
378,94	966,94
379,145	986,6
379,35	984,29
379,554	1005,54
379,759	972,72
379,964	1005,23
380,168	948,71
380,373	996,38
380,578	1052,69
380,782	1066,83
380,987	1020,8
381,191	1006,15
381,396	1004,21
381,601	1015,88
381,805	1011,73
382,01	1113,26
382,214	1038
382,419	1031,09
382,623	1052,95
382,828	1044,5
383,032	1004,87
383,237	945,38
383,441	967,81
383,646	1003,59
383,85	929,82
384,055	977,69
384,259	971,8
384,464	927,82
384,668	924,95
384,872	952,65
385,077	952,91
385,281	963,3
385,486	938,37
385,69	1009,74
385,894	1054,33
386,099	1040,97
386,303	1004,82
386,507	1049,72
386,712	1079,68
386,916	985,62
387,12	989,1
387,325	1059,86
387,529	1011,68
387,733	1038,72
387,937	989,57
388,142	974,31
388,346	968,68
388,55	1065,08
388,754	1021,87
388,959	986,34
389,163	1000,98
389,367	990,28
389,571	952,86
389,775	1022,69
389,98	978,46
390,184	983,52
390,388	974
390,592	1005,69
390,796	1012,5
391	1004,67
391,204	1016,09
391,409	1034,77
391,613	1092,89
391,817	1096,06
392,021	1195,85
392,225	1159,04
392,429	1119,92
392,633	1098,31
392,837	1068,87
393,041	1073,79
393,245	1084,8
393,449	1098,11
393,653	1239,26
393,857	1392,04
394,061	1486,2
394,265	1473,55
394,469	1480
394,673	1392,35
394,877	1255,49
395,081	1218,22
395,285	1153,56
395,489	1019,21
395,693	1034,11
395,896	1010,71
396,1	995,81
396,304	1004,87
396,508	920,45
396,712	949,43
396,916	939,6
397,12	989,26
397,323	1019,57
397,527	994,99
397,731	1036,52
397,935	985,11
398,139	965,45
398,342	1018,75
398,546	996,58
398,75	952,24
398,954	997,6
399,157	1034,52
399,361	1048,91
399,565	951,47
399,769	1057,87
399,972	1010,61
400,176	1008,71
400,38	974,05
400,583	985,37
400,787	1029,14
400,991	1028,63
401,194	1018,65
401,398	1033,34
401,601	1019,16
401,805	1036,92
402,009	1039,74
402,212	1054,64
402,416	1195,28
402,619	1085,82
402,823	1239,06
403,026	1322,87
403,23	1557,67
403,433	1884,37
403,637	1919,6
403,841	2016,78
404,044	1967,32
404,247	1772,66
404,451	1583,07
404,654	1427,06
404,858	1317,96
405,061	1220,53
405,265	1138,15
405,468	1151,87
405,672	1065,8
405,875	1098,98
406,078	1070,31
406,282	1066,31
406,485	1045,99
406,689	1137,89
406,892	1168,71
407,095	1073,12
407,299	1094,58
407,502	1154,43
407,705	1139,89
407,909	1204,04
408,112	1276,13
408,315	1377,6
408,518	1471,71
408,722	1398,75
408,925	1394,04
409,128	1399,62
409,331	1356,25
409,535	1345,91
409,738	1262,36
409,941	1312,22
410,144	1148,74
410,347	1254,52
410,551	1182,23
410,754	1117,21
410,957	1136,15
411,16	1102
411,363	1198,46
411,566	1182,38
411,769	1201,43
411,973	1206,04
412,176	1305,93
412,379	1313,91
412,582	1273,93
412,785	1217,66
412,988	1136,51
413,191	1201,12
413,394	1202,25
413,597	1225,34
413,8	1306,74
414,003	1636,72
414,206	1892,26
414,409	2660,71
414,612	3525,21
414,815	4403,22
415,018	4844,25
415,221	5105,62
415,424	4932,88
415,627	4097,82
415,83	3298,24
416,033	2704,48
416,235	2311,79
416,438	2021,28
416,641	1847,51
416,844	1860,87
417,047	1851,66
417,25	1949,14
417,453	2162,39
417,655	2371,94
417,858	2773,45
418,061	3009,12
418,264	3386,3
418,467	4171,24
418,669	5033,64
418,872	5847,35
419,075	6171,23
419,278	6259,04
419,48	5959,63
419,683	5089,96
419,886	3733,64
420,089	3068,51
420,291	2447
420,494	2043,71
420,697	1743,93
420,899	1669,64
421,102	1450,15
421,305	1461,83
421,507	1354,46
421,71	1313,76
421,912	1325,33
422,115	1225,08
422,318	1284,01
422,52	1303,57
422,723	1291,69
422,925	1345,61
423,128	1358,71
423,33	1290,31
423,533	1346,01
423,735	1428,7
423,938	1543,44
424,14	1631,09
424,343	1907,52
424,545	2223,57
424,748	2427,91
424,95	2622,26
425,153	2933,29
425,355	3161,54
425,558	3373,81
425,76	3287,54
425,962	3358,25
426,165	3312,63
426,367	3337,77
426,57	3188,62
426,772	2712,98
426,974	2374,4
427,177	1935,78
427,379	1788,53
427,581	1733,29
427,784	1564,23
427,986	1515,74
428,188	1605,8
428,39	1711,22
428,593	1891,8
428,795	2232,84
428,997	2393,6
429,2	2294,99
429,402	2372,1
429,604	2097,72
429,806	1859,75
430,008	1777,93
430,211	1638,52
430,413	1538,22
430,615	1527,16
430,817	1495
431,019	1487,73
431,221	1562,84
431,423	1503,96
431,626	1668,26
431,828	1873,52
432,03	2172,63
432,232	2532,35
432,434	2754,45
432,636	2815,38
432,838	2655,79
433,04	2531,53
433,242	2301,39
433,444	2108,27
433,646	2093,78
433,848	1950,58
434,05	1858,06
434,252	1655,97
