Data from USB4F035431__20__15-00-16-353.txt Node

Date: Wed Feb 12 15:00:16 CET 2025
User: Versuch 234
Spectrometer: USB4F03543
Trigger mode: 4
Integration Time (sec): 5,000000E-2
Scans to average: 5
Electric dark correction enabled: true
Nonlinearity correction enabled: false
Boxcar width: 0
XAxis mode: Wavelengths
Number of Pixels in Spectrum: 3648
>>>>>Begin Spectral Data<<<<<
179,969	-80,86
180,181	-80,86
180,394	-80,86
180,606	-97,24
180,819	-89,46
181,031	8,84
181,243	47,75
181,456	-26,38
181,668	29,73
181,88	-8,36
182,093	-30,07
182,305	-40,72
182,518	-8,36
182,73	35,87
182,942	-10,82
183,155	-12,46
183,367	14,98
183,579	-9,18
183,791	30,55
184,004	16,62
184,216	-3,86
184,428	21,13
184,641	18,67
184,853	-4,68
185,065	-6,31
185,277	23,59
185,49	50,21
185,702	-0,17
185,914	3,93
186,126	24
186,338	13,35
186,551	12,53
186,763	37,92
186,975	-8,36
187,187	30,14
187,399	9,66
187,612	54,31
187,824	-27,61
188,036	31,37
188,248	53,49
188,46	9,25
188,672	33,01
188,885	-16,55
189,097	60,04
189,309	-2,63
189,521	22,36
189,733	38,74
189,945	46,11
190,157	32,19
190,369	7,2
190,581	-1,4
190,794	33,42
191,006	11,3
191,218	-14,51
191,43	38,33
191,642	8,43
191,854	33,01
192,066	59,22
192,278	20,72
192,49	1,47
192,702	-5,5
192,914	37,1
193,126	30,14
193,338	-16,96
193,55	17,44
193,762	26,86
193,974	-13,69
194,186	-12,05
194,398	33,83
194,61	19,49
194,822	43,66
195,034	59,22
195,246	53,08
195,457	30,14
195,669	62,5
195,881	25,22
196,093	-12,46
196,305	14,57
196,517	-9,59
196,729	26,86
196,941	12,53
197,153	18,26
197,365	54,71
197,576	7,2
197,788	-24,34
198	15,39
198,212	64,95
198,424	33,83
198,636	6,38
198,847	-14,51
199,059	17,85
199,271	2,7
199,483	30,14
199,695	26,04
199,906	36,28
200,118	4,74
200,33	16,21
200,542	218,96
200,753	10,07
200,965	1,06
201,177	34,64
201,389	37,51
201,6	-7,13
201,812	55,94
202,024	5,56
202,235	35,87
202,447	50,62
202,659	53,08
202,871	16,62
203,082	-2,63
203,294	-10,82
203,506	39,56
203,717	24
203,929	27,68
204,141	-7,13
204,352	58,81
204,564	-14,1
204,775	-13,28
204,987	57,58
205,199	70,69
205,41	28,91
205,622	13,76
205,833	-6,31
206,045	28,91
206,257	-5,09
206,468	-21,47
206,68	-8,36
206,891	-18,19
207,103	20,72
207,314	-9,59
207,526	33,42
207,737	-15,74
207,949	9,66
208,16	19,49
208,372	28,09
208,583	37,51
208,795	2,29
209,006	24
209,218	5,56
209,429	2,29
209,641	12,53
209,852	11,71
210,064	8,84
210,275	8,43
210,487	25,22
210,698	30,55
210,909	33,42
211,121	32,19
211,332	35,46
211,544	6,38
211,755	65,36
211,966	21,95
212,178	20,72
212,389	102,23
212,6	25,63
212,812	106,32
213,023	24,4
213,234	26,45
213,446	5,56
213,657	-34,99
213,868	52,26
214,08	70,69
214,291	17,44
214,502	49,39
214,714	-10,82
214,925	18,67
215,136	-29,25
215,347	-7,95
215,559	-8,77
215,77	35,87
215,981	28,09
216,192	-28,02
216,404	6,79
216,615	40,79
216,826	45,29
217,037	-12,05
217,249	28,5
217,46	61,27
217,671	19,9
217,882	8,02
218,093	50,21
218,304	48,16
218,516	41,61
218,727	-3,86
218,938	21,95
219,149	78,88
219,36	16,62
219,571	36,69
219,782	19,9
219,993	46,93
220,205	-2,63
220,416	61,68
220,627	42,84
220,838	37,92
221,049	77,65
221,26	104,69
221,471	39,97
221,682	25,63
221,893	55,94
222,104	-11,23
222,315	-27,61
222,526	-12,87
222,737	35,05
222,948	0,24
223,159	33,01
223,37	26,45
223,581	-7,13
223,792	11,3
224,003	25,22
224,214	13,35
224,425	23,18
224,636	-44,82
224,847	49,8
225,058	19,08
225,269	20,72
225,48	-13,69
225,691	-13,28
225,902	34,24
226,112	19,49
226,323	5,56
226,534	42,43
226,745	16,21
226,956	0,24
227,167	2,7
227,378	28,5
227,589	1,06
227,799	86,25
228,01	57,58
228,221	-13,28
228,432	7,2
228,643	12,53
228,853	14,17
229,064	-10,82
229,275	12,12
229,486	-9,59
229,697	34,64
229,907	72,74
230,118	22,77
230,329	-5,5
230,54	5,56
230,75	36,28
230,961	53,49
231,172	-0,99
231,383	-18,6
231,593	3,93
231,804	-21,47
232,015	5,56
232,225	47,34
232,436	5,97
232,647	42,43
232,857	24,81
233,068	8,84
233,279	37,51
233,489	14,98
233,7	23,18
233,91	-10
234,121	10,89
234,332	14,98
234,542	27,27
234,753	13,76
234,964	22,36
235,174	30,96
235,385	64,55
235,595	10,48
235,806	69,05
236,016	10,07
236,227	5,15
236,437	10,07
236,648	15,8
236,858	2,7
237,069	-10,82
237,279	14,17
237,49	16,21
237,7	42,02
237,911	22,36
238,121	-10,82
238,332	-3,45
238,542	49,8
238,753	7,2
238,963	24,81
239,174	64,95
239,384	30,96
239,595	11,3
239,805	48,98
240,015	15,8
240,226	9,66
240,436	48,98
240,647	55,12
240,857	25,22
241,067	38,74
241,278	113,7
241,488	23,59
241,698	53,08
241,909	10,89
242,119	32,19
242,329	71,92
242,54	42,02
242,75	10,48
242,96	30,14
243,171	46,93
243,381	43,25
243,591	38,74
243,801	78,06
244,012	60,04
244,222	53,49
244,432	12,94
244,642	23,18
244,853	25,63
245,063	34,24
245,273	61,68
245,483	35,46
245,694	48,57
245,904	46,93
246,114	16,62
246,324	26,45
246,534	22,77
246,744	13,76
246,955	-9,59
247,165	94,04
247,375	64,14
247,585	14,17
247,795	39,15
248,005	66,59
248,215	64,95
248,425	66,59
248,636	116,97
248,846	11,71
249,056	12,94
249,266	16,21
249,476	53,08
249,686	43,66
249,896	27,68
250,106	60,45
250,316	32,6
250,526	120,25
250,736	35,87
250,946	107,96
251,156	47,34
251,366	38,74
251,576	67,82
251,786	85,43
251,996	67,41
252,206	23,59
252,416	44,48
252,626	5,15
252,836	44,88
253,046	59,63
253,256	97,31
253,466	44,88
253,676	48,57
253,885	62,91
254,095	49,8
254,305	84,62
254,515	57,99
254,725	30,55
254,935	46,93
255,145	67,82
255,355	55,53
255,564	36,28
255,774	33,83
255,984	69,05
256,194	41,61
256,404	24,81
256,614	66,18
256,823	77,24
257,033	28,91
257,243	51,03
257,453	27,27
257,662	30,55
257,872	64,55
258,082	18,67
258,292	-1,4
258,501	94,45
258,711	130,08
258,921	70,69
259,131	33,83
259,34	35,46
259,55	45,7
259,76	13,35
259,969	38,33
260,179	33,42
260,389	64,55
260,598	69,87
260,808	41,2
261,018	28,09
261,227	73,97
261,437	18,26
261,647	90,76
261,856	-5,09
262,066	45,29
262,275	111,65
262,485	16,62
262,694	47,34
262,904	-8,36
263,114	53,08
263,323	44,07
263,533	36,28
263,742	13,35
263,952	59,22
264,161	21,95
264,371	55,94
264,58	58,4
264,79	39,97
264,999	47,34
265,209	58,4
265,418	60,86
265,628	44,48
265,837	74,38
266,047	54,71
266,256	85,43
266,466	19,49
266,675	7,2
266,884	41,2
267,094	76,42
267,303	73,15
267,513	36,28
267,722	72,74
267,931	35,05
268,141	31,37
268,35	24,4
268,559	60,86
268,769	51,03
268,978	-4,27
269,187	42,02
269,397	29,73
269,606	2,7
269,815	28,09
270,025	19,9
270,234	64,14
270,443	3,93
270,653	55,53
270,862	53,49
271,071	25,63
271,28	36,69
271,49	42,02
271,699	-30,89
271,908	66,18
272,117	39,15
272,327	4,33
272,536	21,95
272,745	31,37
272,954	36,69
273,163	16,21
273,372	63,73
273,582	16,21
273,791	46,52
274	17,85
274,209	22,36
274,418	35,87
274,627	61,27
274,836	23,18
275,046	47,75
275,255	45,7
275,464	24,4
275,673	33,83
275,882	51,44
276,091	19,49
276,3	11,71
276,509	46,11
276,718	32,19
276,927	17,03
277,136	36,69
277,345	27,27
277,554	0,65
277,763	53,08
277,972	28,91
278,181	37,92
278,39	-0,17
278,599	38,33
278,808	-30,89
279,017	31,37
279,226	-18,19
279,435	28,91
279,644	3,93
279,853	36,69
280,062	96,49
280,271	31,37
280,48	42,02
280,688	-0,17
280,897	36,28
281,106	3,93
281,315	-14,51
281,524	42,43
281,733	-2,22
281,942	-8,36
282,151	34,64
282,359	53,08
282,568	12,94
282,777	20,31
282,986	30,96
283,195	33,83
283,403	40,79
283,612	30,96
283,821	9,25
284,03	42,84
284,238	50,62
284,447	57,99
284,656	38,33
284,865	70,69
285,073	28,91
285,282	35,46
285,491	11,3
285,699	-5,5
285,908	8,43
286,117	33,01
286,325	19,49
286,534	84,21
286,743	27,27
286,951	48,57
287,16	51,03
287,369	13,35
287,577	5,97
287,786	14,98
287,995	1,88
288,203	22,77
288,412	1,88
288,62	-3,04
288,829	20,31
289,037	4,74
289,246	38,74
289,455	48,16
289,663	48,57
289,872	53,49
290,08	14,57
290,289	53,08
290,497	10,89
290,706	34,64
290,914	-4,27
291,123	-8,77
291,331	19,49
291,54	54,71
291,748	75,19
291,957	22,36
292,165	-3,04
292,373	19,9
292,582	-15,74
292,79	54,71
292,999	14,57
293,207	51,85
293,415	8,84
293,624	-10
293,832	10,07
294,041	18,26
294,249	9,25
294,457	2,29
294,666	40,38
294,874	-2,22
295,082	49,8
295,291	5,15
295,499	23,59
295,707	35,87
295,915	39,97
296,124	60,86
296,332	33,01
296,54	10,07
296,749	64,95
296,957	48,16
297,165	21,13
297,373	16,21
297,581	10,07
297,79	5,56
297,998	-12,05
298,206	-2,63
298,414	2,7
298,622	30,55
298,831	57,58
299,039	34,24
299,247	39,56
299,455	35,87
299,663	31,37
299,871	9,25
300,08	23,59
300,288	-12,87
300,496	16,62
300,704	-16,96
300,912	3,93
301,12	19,08
301,328	29,32
301,536	51,44
301,744	-6,72
301,952	46,11
302,16	-3,86
302,368	4,33
302,576	29,73
302,784	49,8
302,992	-28,02
303,2	46,52
303,408	24,4
303,616	52,67
303,824	47,75
304,032	63,73
304,24	71,1
304,448	43,66
304,656	31,78
304,864	77,65
305,072	32,6
305,28	33,42
305,488	10,89
305,696	28,09
305,904	38,33
306,111	-4,27
306,319	6,79
306,527	35,87
306,735	30,55
306,943	17,85
307,151	34,24
307,359	7,2
307,566	57,17
307,774	46,93
307,982	21,54
308,19	-3,45
308,398	11,71
308,605	2,7
308,813	10,89
309,021	9,66
309,229	25,22
309,436	-14,51
309,644	25,63
309,852	29,32
310,06	102,64
310,267	18,26
310,475	33,01
310,683	46,93
310,89	17,44
311,098	66,18
311,306	3,52
311,513	37,51
311,721	4,74
311,929	28,5
312,136	26,45
312,344	-26,38
312,552	58,81
312,759	1,88
312,967	33,83
313,174	44,48
313,382	38,74
313,589	22,36
313,797	64,14
314,005	27,27
314,212	39,15
314,42	3,93
314,627	-27,2
314,835	11,71
315,042	22,77
315,25	-28,43
315,457	9,25
315,665	-3,45
315,872	31,78
316,08	19,08
316,287	-7,54
316,495	204,22
316,702	29,73
316,909	-1,4
317,117	40,79
317,324	21,54
317,532	74,38
317,739	20,31
317,946	17,03
318,154	-5,9
318,361	-4,27
318,569	46,93
318,776	42,84
318,983	18,67
319,191	-21,06
319,398	17,44
319,605	34,64
319,813	49,8
320,02	-5,5
320,227	46,93
320,434	59,22
320,642	21,54
320,849	-2,63
321,056	39,97
321,264	64,14
321,471	46,52
321,678	44,88
321,885	32,6
322,092	58,4
322,3	42,43
322,507	10,07
322,714	12,53
322,921	15,39
323,128	8,84
323,336	30,96
323,543	68,23
323,75	37,1
323,957	18,26
324,164	17,44
324,371	48,57
324,578	-5,09
324,786	53,49
324,993	21,54
325,2	54,71
325,407	-30,48
325,614	44,48
325,821	30,96
326,028	102,64
326,235	51,85
326,442	28,5
326,649	25,63
326,856	60,04
327,063	36,28
327,27	24,4
327,477	32,19
327,684	13,76
327,891	28,09
328,098	78,88
328,305	106,73
328,512	80,52
328,719	248,86
328,926	377,07
329,133	571,62
329,34	1011,12
329,546	1560,38
329,753	2040,83
329,96	2299,29
330,167	2257,51
330,374	2040,83
330,581	1426,85
330,788	767,82
330,995	466,77
331,201	271,8
331,408	185,78
331,615	59,63
331,822	47,75
332,029	49,39
332,235	63,73
332,442	10,48
332,649	31,78
332,856	8,84
333,062	64,95
333,269	13,76
333,476	39,56
333,683	6,79
333,889	52,26
334,096	21,95
334,303	64,95
334,509	20,72
334,716	57,99
334,923	51,44
335,129	8,02
335,336	57,17
335,543	28,91
335,749	34,24
335,956	81,34
336,163	34,24
336,369	25,63
336,576	33,01
336,782	51,85
336,989	5,97
337,196	27,27
337,402	28,09
337,609	24,81
337,815	21,13
338,022	25,63
338,228	71,51
338,435	103,46
338,641	60,04
338,848	97,72
339,054	64,55
339,261	-5,9
339,467	19,9
339,674	68,23
339,88	38,74
340,087	21,95
340,293	14,98
340,5	47,75
340,706	55,12
340,912	8,02
341,119	18,26
341,325	9,66
341,532	-3,45
341,738	3,93
341,944	34,24
342,151	15,8
342,357	33,01
342,563	42,84
342,77	18,26
342,976	40,38
343,182	82,57
343,389	42,43
343,595	45,29
343,801	14,98
344,007	55,12
344,214	15,39
344,42	16,21
344,626	44,48
344,832	8,02
345,039	38,33
345,245	30,14
345,451	15,8
345,657	51,44
345,864	24
346,07	35,87
346,276	35,46
346,482	89,12
346,688	43,66
346,894	55,12
347,1	38,74
347,307	37,1
347,513	66,18
347,719	40,38
347,925	63,73
348,131	3,52
348,337	76,01
348,543	-11,64
348,749	6,38
348,955	76,83
349,161	20,31
349,367	51,03
349,573	67,41
349,779	45,29
349,985	53,49
350,191	5,15
350,397	29,73
350,603	67,82
350,809	2,7
351,015	82,16
351,221	26,04
351,427	33,42
351,633	33,01
351,839	67,82
352,045	33,42
352,251	98,54
352,457	38,74
352,663	44,48
352,869	32,6
353,075	46,11
353,28	6,38
353,486	-0,17
353,692	37,1
353,898	38,33
354,104	18,26
354,31	59,63
354,515	42,43
354,721	64,55
354,927	81,75
355,133	80,93
355,339	87,89
355,544	63,32
355,75	78,06
355,956	63,32
356,162	76,42
356,367	27,27
356,573	80,11
356,779	37,92
356,984	67
357,19	89,12
357,396	47,34
357,602	68,64
357,807	30,14
358,013	71,1
358,218	84,21
358,424	10,48
358,63	48,98
358,835	51,03
359,041	52,26
359,247	61,68
359,452	52,67
359,658	35,46
359,863	89,53
360,069	71,51
360,274	75,19
360,48	98,13
360,685	80,93
360,891	61,68
361,097	29,73
361,302	18,26
361,508	96,49
361,713	58,4
361,918	106,32
362,124	36,28
362,329	80,52
362,535	58,4
362,74	58,81
362,946	75,6
363,151	64,14
363,357	71,51
363,562	32,6
363,767	-16,96
363,973	82,16
364,178	27,68
364,383	37,51
364,589	69,87
364,794	27,68
365	70,28
365,205	69,87
365,41	30,96
365,615	83,8
365,821	39,97
366,026	78,47
366,231	50,21
366,437	111,24
366,642	28,5
366,847	100,18
367,052	48,16
367,258	54,31
367,463	23,18
367,668	28,91
367,873	101,82
368,078	67,82
368,284	-8,36
368,489	48,57
368,694	58,4
368,899	57,58
369,104	85,02
369,309	42,43
369,515	40,38
369,72	68,64
369,925	10,07
370,13	63,73
370,335	68,23
370,54	20,31
370,745	37,1
370,95	40,79
371,155	109,6
371,36	55,12
371,565	53,9
371,77	77,24
371,975	36,28
372,18	87,48
372,385	89,12
372,59	57,58
372,795	33,42
373	96,08
373,205	69,05
373,41	68,23
373,615	53,49
373,82	11,3
374,025	82,57
374,23	5,56
374,435	45,29
374,64	77,65
374,845	62,91
375,05	54,31
375,254	71,1
375,459	56,35
375,664	57,17
375,869	20,31
376,074	8,84
376,279	22,36
376,483	69,05
376,688	48,16
376,893	82,57
377,098	49,8
377,303	62,5
377,507	60,45
377,712	114,52
377,917	49,39
378,122	77,24
378,326	49,8
378,531	43,66
378,736	-0,58
378,94	15,8
379,145	66,18
379,35	39,56
379,554	87,48
379,759	46,52
379,964	90,35
380,168	28,09
380,373	64,14
380,578	107,96
380,782	82,16
380,987	49,39
381,191	84,62
381,396	61,68
381,601	59,22
381,805	50,21
382,01	100,59
382,214	63,73
382,419	51,85
382,623	85,02
382,828	98,95
383,032	57,17
383,237	24,4
383,441	26,86
383,646	67
383,85	34,64
384,055	67
384,259	43,25
384,464	23,59
384,668	12,53
384,872	25,22
385,077	60,04
385,281	42,43
385,486	53,08
385,69	59,22
385,894	55,94
386,099	85,84
386,303	31,37
386,507	79,7
386,712	73,15
386,916	14,57
387,12	-0,58
387,325	58,4
387,529	58,4
387,733	85,43
387,937	49,8
388,142	2,7
388,346	15,39
388,55	83,39
388,754	53,08
388,959	39,15
389,163	31,78
389,367	47,34
389,571	59,22
389,775	62,5
389,98	55,94
390,184	60,86
390,388	73,97
390,592	58,81
390,796	36,69
391	38,74
391,204	83,8
391,409	23,59
391,613	57,58
391,817	68,64
392,021	100,18
392,225	66,59
392,429	36,69
392,633	34,64
392,837	38,33
393,041	42,43
393,245	51,44
393,449	21,95
393,653	73,15
393,857	85,02
394,061	105,5
394,265	67
394,469	108,37
394,673	57,58
394,877	91,17
395,081	71,51
395,285	88,71
395,489	46,52
395,693	94,04
395,896	39,97
396,1	68,23
396,304	73,15
396,508	34,24
396,712	55,12
396,916	32,6
397,12	82,98
397,323	65,77
397,527	90,76
397,731	65,77
397,935	69,05
398,139	37,1
398,342	76,42
398,546	55,12
398,75	47,75
398,954	94,45
399,157	59,63
399,361	49,39
399,565	25,63
399,769	92,81
399,972	48,98
400,176	43,66
400,38	49,39
400,583	33,42
400,787	80,52
400,991	43,66
401,194	112,06
401,398	65,77
401,601	60,04
401,805	78,88
402,009	38,74
402,212	64,14
402,416	111,65
402,619	46,11
402,823	126,39
403,026	64,55
403,23	51,44
403,433	169,4
403,637	101,82
403,841	130,08
404,044	130,49
404,247	57,17
404,451	82,16
404,654	114,93
404,858	87,48
405,061	72,33
405,265	17,85
405,468	25,63
405,672	48,98
405,875	82,16
406,078	44,48
406,282	46,93
406,485	33,83
406,689	90,35
406,892	89,53
407,095	38,74
407,299	76,83
407,502	71,51
407,705	56,76
407,909	84,21
408,112	105,91
408,315	67,41
408,518	116,15
408,722	55,12
408,925	84,62
409,128	102,64
409,331	94,04
409,535	121,48
409,738	73,56
409,941	97,72
410,144	38,74
410,347	119,84
410,551	70,28
410,754	68,64
410,957	73,15
411,16	45,7
411,363	73,97
411,566	105,91
411,769	64,14
411,973	48,98
412,176	99,77
412,379	123,94
412,582	105,91
412,785	61,27
412,988	40,38
413,191	63,32
413,394	105,5
413,597	42,84
413,8	77,24
414,003	130,9
414,206	100,59
414,409	153,43
414,612	203,4
414,815	249,27
415,018	283,68
415,221	259,51
415,424	281,22
415,627	217,32
415,83	200,94
416,033	146,46
416,235	109,19
416,438	106,32
416,641	145,64
416,844	74,38
417,047	71,1
417,25	104,28
417,453	150,15
417,655	110,83
417,858	179,64
418,061	155,07
418,264	176,36
418,467	232,48
418,669	262,79
418,872	299,24
419,075	338,97
419,278	319,31
419,48	355,77
419,683	248,45
419,886	184,97
420,089	131,31
420,291	134,18
420,494	47,34
420,697	62,5
420,899	111,24
421,102	71,1
421,305	93,22
421,507	77,24
421,71	80,11
421,912	86,25
422,115	71,51
422,318	101
422,52	101
422,723	58,81
422,925	97,72
423,128	118,61
423,33	57,17
423,533	88,71
423,735	84,21
423,938	45,29
424,14	76,01
424,343	171,45
424,545	150,56
424,748	168,17
424,95	137,45
425,153	156,29
425,355	164,08
425,558	194,8
425,76	200,94
425,962	215,28
426,165	201,76
426,367	152,61
426,57	165,31
426,772	136,22
426,974	122,71
427,177	88,3
427,379	85,84
427,581	162,44
427,784	81,75
427,986	72,33
428,188	88,3
428,39	96,49
428,593	112,06
428,795	137,04
428,997	180,05
429,2	131,31
429,402	170,63
429,604	97,72
429,806	95,26
430,008	145,64
430,211	90,76
430,413	56,35
430,615	114,52
430,817	99,77
431,019	81,34
431,221	134,18
431,423	69,46
431,626	80,52
431,828	86,25
432,03	129,26
432,232	155,88
432,434	165,31
432,636	133,36
432,838	129,26
433,04	141,55
433,242	149,33
433,444	108,37
433,646	126,39
433,848	100,18
434,05	95,67
434,252	67,82
434,454	80,52
434,656	67
434,858	71,1
435,06	36,69
435,262	100,59
435,464	77,24
435,666	116,56
435,868	92,4
436,07	98,95
436,271	50,21
436,473	41,61
436,675	104,69
436,877	82,98
437,079	100,59
437,281	60,04
437,482	39,15
437,684	83,39
437,886	85,84
438,088	85,02
438,29	70,28
438,491	73,56
438,693	28,5
438,895	91,99
439,097	80,93
439,298	75,19
439,5	79,29
439,702	66,59
439,903	86,66
440,105	73,97
440,307	121,48
440,508	107,96
440,71	70,69
440,912	106,73
441,113	81,75
441,315	92,81
441,517	78,06
441,718	88,3
441,92	70,69
442,121	117,38
442,323	76,83
442,524	55,53
442,726	101
442,928	62,09
443,129	66,59
443,331	64,95
443,532	70,69
443,734	52,67
443,935	91,99
444,136	54,31
444,338	67,82
444,539	109,19
444,741	89,53
444,942	114,52
445,144	88,3
445,345	112,06
445,546	62,5
445,748	103,46
445,949	54,71
446,151	56,76
446,352	33,01
446,553	164,9
446,755	68,64
446,956	92,4
447,157	81,34
447,359	74,38
447,56	78,06
447,761	94,04
447,962	111,24
448,164	92,81
448,365	105,09
448,566	121,89
448,767	102,64
448,969	171,04
449,17	105,5
449,371	100,18
449,572	115,33
449,773	109,19
449,974	162,03
450,176	146,87
450,377	104,28
450,578	120,25
450,779	82,16
450,98	76,01
451,181	98,13
451,382	85,43
451,583	104,28
451,784	114,93
451,986	51,85
452,187	119,84
452,388	105,91
452,589	83,8
452,79	90,76
452,991	91,17
