Data from USB4F035431__3__14-00-16-398.txt Node

Date: Wed Feb 12 14:00:16 CET 2025
User: Versuch 234
Spectrometer: USB4F03543
Trigger mode: 4
Integration Time (sec): 1,000000E-1
Scans to average: 1
Electric dark correction enabled: true
Nonlinearity correction enabled: false
Boxcar width: 0
XAxis mode: Wavelengths
Number of Pixels in Spectrum: 3648
>>>>>Begin Spectral Data<<<<<
179,969	-107,69
180,181	-107,69
180,394	-107,69
180,606	-156,84
180,819	-119,98
181,031	-31,91
181,243	47,96
181,456	-3,24
181,668	80,72
181,88	-29,87
182,093	80,72
182,305	-132,26
182,518	-66,73
182,73	-36,01
182,942	-31,91
183,155	37,72
183,367	84,82
183,579	68,44
183,791	-9,39
184,004	7
184,216	19,29
184,428	23,38
184,641	-9,39
184,853	19,29
185,065	-9,39
185,277	-13,48
185,49	39,76
185,702	-79,02
185,914	2,9
186,126	39,76
186,338	56,15
186,551	-17,58
186,763	13,14
186,975	-60,59
187,187	72,53
187,399	9,05
187,612	47,96
187,824	0,85
188,036	68,44
188,248	23,38
188,46	37,72
188,672	7
188,885	-19,63
189,097	74,58
189,309	-29,87
189,521	-13,48
189,733	29,52
189,945	23,38
190,157	47,96
190,369	-1,19
190,581	64,34
190,794	45,91
191,006	-74,92
191,218	17,24
191,43	62,29
191,642	-72,87
191,854	-17,58
192,066	31,57
192,278	60,24
192,49	-5,29
192,702	37,72
192,914	72,53
193,126	72,53
193,338	-66,73
193,55	74,58
193,762	56,15
193,974	-36,01
194,186	31,57
194,398	21,33
194,61	-27,82
194,822	-21,67
195,034	45,91
195,246	64,34
195,457	13,14
195,669	86,87
195,881	80,72
196,093	-9,39
196,305	76,63
196,517	-54,44
196,729	142,16
196,941	4,95
197,153	131,92
197,365	82,77
197,576	52,05
197,788	0,85
198	41,81
198,212	37,72
198,424	-1,19
198,636	-36,01
198,847	23,38
199,059	4,95
199,271	-36,01
199,483	4,95
199,695	21,33
199,906	31,57
200,118	13,14
200,33	133,97
200,542	375,63
200,753	-17,58
200,965	-60,59
201,177	62,29
201,389	103,25
201,6	19,29
201,812	17,24
202,024	19,29
202,235	-48,3
202,447	78,68
202,659	64,34
202,871	31,57
203,082	13,14
203,294	52,05
203,506	-9,39
203,717	23,38
203,929	52,05
204,141	-21,67
204,352	47,96
204,564	-17,58
204,775	31,57
204,987	27,48
205,199	-5,29
205,41	23,38
205,622	103,25
205,833	-7,34
206,045	78,68
206,257	-7,34
206,468	29,52
206,68	-36,01
206,891	35,67
207,103	11,09
207,314	2,9
207,526	15,19
207,737	-1,19
207,949	37,72
208,16	47,96
208,372	37,72
208,583	23,38
208,795	15,19
209,006	56,15
209,218	17,24
209,429	-70,83
209,641	-54,44
209,852	-5,29
210,064	23,38
210,275	37,72
210,487	86,87
210,698	0,85
210,909	76,63
211,121	-42,15
211,332	56,15
211,544	4,95
211,755	138,07
211,966	37,72
212,178	76,63
212,389	76,63
212,6	-46,25
212,812	146,26
213,023	27,48
213,234	52,05
213,446	52,05
213,657	0,85
213,868	64,34
214,08	136,02
214,291	41,81
214,502	95,06
214,714	-33,96
214,925	39,76
215,136	47,96
215,347	-3,24
215,559	-58,54
215,77	-5,29
215,981	146,26
216,192	35,67
216,404	-33,96
216,615	97,11
216,826	60,24
217,037	21,33
217,249	70,48
217,46	70,48
217,671	35,67
217,882	-66,73
218,093	39,76
218,304	50
218,516	127,83
218,727	-21,67
218,938	4,95
219,149	62,29
219,36	-50,35
219,571	54,1
219,782	43,86
219,993	95,06
220,205	-36,01
220,416	93,01
220,627	4,95
220,838	35,67
221,049	179,03
221,26	68,44
221,471	50
221,682	115,54
221,893	93,01
222,104	-48,3
222,315	-52,39
222,526	-93,35
222,737	35,67
222,948	15,19
223,159	45,91
223,37	-50,35
223,581	-25,77
223,792	39,76
224,003	80,72
224,214	-31,91
224,425	0,85
224,636	78,68
224,847	21,33
225,058	70,48
225,269	82,77
225,48	35,67
225,691	-19,63
225,902	21,33
226,112	113,49
226,323	-17,58
226,534	21,33
226,745	7
226,956	7
227,167	-7,34
227,378	43,86
227,589	-44,2
227,799	70,48
228,01	7
228,221	-3,24
228,432	50
228,643	-13,48
228,853	7
229,064	23,38
229,275	-11,43
229,486	86,87
229,697	4,95
229,907	-13,48
230,118	56,15
230,329	29,52
230,54	-9,39
230,75	15,19
230,961	21,33
231,172	4,95
231,383	21,33
231,593	-11,43
231,804	39,76
232,015	39,76
232,225	60,24
232,436	52,05
232,647	-23,72
232,857	88,92
233,068	15,19
233,279	70,48
233,489	-25,77
233,7	27,48
233,91	35,67
234,121	52,05
234,332	29,52
234,542	-58,54
234,753	-27,82
234,964	39,76
235,174	-1,19
235,385	70,48
235,595	56,15
235,806	29,52
236,016	-29,87
236,227	-36,01
236,437	27,48
236,648	-33,96
236,858	47,96
237,069	54,1
237,279	35,67
237,49	47,96
237,7	31,57
237,911	11,09
238,121	47,96
238,332	-42,15
238,542	23,38
238,753	-21,67
238,963	-66,73
239,174	78,68
239,384	-48,3
239,595	-9,39
239,805	-42,15
240,015	23,38
240,226	-11,43
240,436	15,19
240,647	56,15
240,857	-52,39
241,067	41,81
241,278	131,92
241,488	-17,58
241,698	47,96
241,909	-5,29
242,119	-11,43
242,329	47,96
242,54	68,44
242,75	41,81
242,96	15,19
243,171	11,09
243,381	7
243,591	35,67
243,801	43,86
244,012	164,69
244,222	21,33
244,432	-29,87
244,642	0,85
244,853	-66,73
245,063	-9,39
245,273	47,96
245,483	-3,24
245,694	-1,19
245,904	29,52
246,114	56,15
246,324	-27,82
246,534	117,59
246,744	-66,73
246,955	-44,2
247,165	115,54
247,375	58,2
247,585	23,38
247,795	-38,06
248,005	50
248,215	39,76
248,425	54,1
248,636	129,88
248,846	-52,39
249,056	-3,24
249,266	13,14
249,476	27,48
249,686	37,72
249,896	-11,43
250,106	-1,19
250,316	37,72
250,526	103,25
250,736	-1,19
250,946	113,49
251,156	103,25
251,366	37,72
251,576	82,77
251,786	105,3
251,996	-74,92
252,206	-17,58
252,416	7
252,626	25,43
252,836	4,95
253,046	-13,48
253,256	62,29
253,466	78,68
253,676	60,24
253,885	43,86
254,095	-25,77
254,305	64,34
254,515	64,34
254,725	58,2
254,935	-13,48
255,145	90,96
255,355	97,11
255,564	45,91
255,774	29,52
255,984	125,78
256,194	-7,34
256,404	19,29
256,614	-17,58
256,823	84,82
257,033	31,57
257,243	35,67
257,453	4,95
257,662	2,9
257,872	29,52
258,082	31,57
258,292	27,48
258,501	138,07
258,711	105,3
258,921	185,17
259,131	35,67
259,34	-29,87
259,55	47,96
259,76	2,9
259,969	17,24
260,179	-46,25
260,389	-13,48
260,598	23,38
260,808	66,39
261,018	-3,24
261,227	39,76
261,437	47,96
261,647	121,68
261,856	41,81
262,066	47,96
262,275	82,77
262,485	39,76
262,694	119,64
262,904	62,29
263,114	56,15
263,323	35,67
263,533	56,15
263,742	-11,43
263,952	52,05
264,161	-42,15
264,371	52,05
264,58	45,91
264,79	-50,35
264,999	56,15
265,209	2,9
265,418	74,58
265,628	7
265,837	13,14
266,047	-25,77
266,256	113,49
266,466	15,19
266,675	-44,2
266,884	-1,19
267,094	35,67
267,303	101,2
267,513	107,35
267,722	97,11
267,931	27,48
268,141	-1,19
268,35	23,38
268,559	43,86
268,769	4,95
268,978	-62,63
269,187	-7,34
269,397	54,1
269,606	13,14
269,815	-58,54
270,025	13,14
270,234	52,05
270,443	-19,63
270,653	88,92
270,862	23,38
271,071	52,05
271,28	-27,82
271,49	146,26
271,699	-25,77
271,908	60,24
272,117	62,29
272,327	64,34
272,536	-9,39
272,745	80,72
272,954	-50,35
273,163	56,15
273,372	13,14
273,582	15,19
273,791	4,95
274	43,86
274,209	27,48
274,418	76,63
274,627	68,44
274,836	-13,48
275,046	93,01
275,255	39,76
275,464	-15,53
275,673	-19,63
275,882	86,87
276,091	-3,24
276,3	66,39
276,509	90,96
276,718	113,49
276,927	-13,48
277,136	95,06
277,345	21,33
277,554	56,15
277,763	101,2
277,972	78,68
278,181	11,09
278,39	-42,15
278,599	-31,91
278,808	0,85
279,017	58,2
279,226	15,19
279,435	-9,39
279,644	37,72
279,853	133,97
280,062	131,92
280,271	7
280,48	86,87
280,688	72,53
280,897	31,57
281,106	-17,58
281,315	45,91
281,524	31,57
281,733	70,48
281,942	35,67
282,151	86,87
282,359	88,92
282,568	23,38
282,777	56,15
282,986	-11,43
283,195	99,16
283,403	78,68
283,612	64,34
283,821	9,05
284,03	52,05
284,238	37,72
284,447	78,68
284,656	-1,19
284,865	82,77
285,073	47,96
285,282	72,53
285,491	19,29
285,699	-15,53
285,908	60,24
286,117	-72,87
286,325	19,29
286,534	105,3
286,743	31,57
286,951	72,53
287,16	54,1
287,369	31,57
287,577	15,19
287,786	37,72
287,995	4,95
288,203	37,72
288,412	54,1
288,62	52,05
288,829	15,19
289,037	47,96
289,246	-5,29
289,455	54,1
289,663	86,87
289,872	76,63
290,08	4,95
290,289	146,26
290,497	7
290,706	43,86
290,914	-19,63
291,123	-5,29
291,331	47,96
291,54	176,98
291,748	105,3
291,957	105,3
292,165	7
292,373	-60,59
292,582	60,24
292,79	56,15
292,999	50
293,207	15,19
293,415	15,19
293,624	19,29
293,832	101,2
294,041	60,24
294,249	37,72
294,457	47,96
294,666	70,48
294,874	-93,35
295,082	-54,44
295,291	21,33
295,499	21,33
295,707	125,78
295,915	47,96
296,124	39,76
296,332	64,34
296,54	50
296,749	56,15
296,957	47,96
297,165	7
297,373	11,09
297,581	62,29
297,79	35,67
297,998	45,91
298,206	47,96
298,414	97,11
298,622	109,4
298,831	-9,39
299,039	11,09
299,247	60,24
299,455	123,73
299,663	37,72
299,871	78,68
300,08	97,11
300,288	39,76
300,496	-17,58
300,704	-64,68
300,912	70,48
301,12	82,77
301,328	37,72
301,536	70,48
301,744	25,43
301,952	23,38
302,16	2,9
302,368	4,95
302,576	37,72
302,784	39,76
302,992	-115,88
303,2	13,14
303,408	97,11
303,616	78,68
303,824	113,49
304,032	47,96
304,24	164,69
304,448	47,96
304,656	43,86
304,864	117,59
305,072	45,91
305,28	60,24
305,488	-11,43
305,696	103,25
305,904	-13,48
306,111	15,19
306,319	121,68
306,527	35,67
306,735	52,05
306,943	27,48
307,151	105,3
307,359	31,57
307,566	109,4
307,774	115,54
307,982	47,96
308,19	0,85
308,398	7
308,605	13,14
308,813	21,33
309,021	19,29
309,229	127,83
309,436	19,29
309,644	113,49
309,852	76,63
310,06	158,55
310,267	45,91
310,475	109,4
310,683	95,06
310,89	86,87
311,098	88,92
311,306	4,95
311,513	37,72
311,721	-17,58
311,929	103,25
312,136	19,29
312,344	-42,15
312,552	56,15
312,759	66,39
312,967	119,64
313,174	35,67
313,382	21,33
313,589	56,15
313,797	105,3
314,005	62,29
314,212	-13,48
314,42	21,33
314,627	13,14
314,835	17,24
315,042	17,24
315,25	17,24
315,457	60,24
315,665	-23,72
315,872	70,48
316,08	70,48
316,287	0,85
316,495	312,14
316,702	-15,53
316,909	72,53
317,117	31,57
317,324	47,96
317,532	11,09
317,739	-9,39
317,946	35,67
318,154	70,48
318,361	-21,67
318,569	29,52
318,776	33,62
318,983	88,92
319,191	88,92
319,398	13,14
319,605	150,36
319,813	37,72
320,02	23,38
320,227	172,88
320,434	146,26
320,642	103,25
320,849	56,15
321,056	93,01
321,264	158,55
321,471	56,15
321,678	64,34
321,885	82,77
322,092	119,64
322,3	93,01
322,507	121,68
322,714	39,76
322,921	37,72
323,128	88,92
323,336	84,82
323,543	138,07
323,75	160,59
323,957	117,59
324,164	152,4
324,371	179,03
324,578	95,06
324,786	146,26
324,993	78,68
325,2	185,17
325,407	29,52
325,614	160,59
325,821	226,13
326,028	314,19
326,235	312,14
326,442	158,55
326,649	203,6
326,856	244,56
327,063	195,41
327,27	215,89
327,477	217,94
327,684	213,84
327,891	166,74
328,098	260,95
328,305	324,43
328,512	187,22
328,719	246,61
328,926	402,26
329,133	277,33
329,34	445,26
329,546	349,01
329,753	441,17
329,96	267,09
330,167	398,16
330,374	457,55
330,581	385,87
330,788	344,91
330,995	373,58
331,201	330,58
331,408	400,21
331,615	430,93
331,822	355,15
332,029	447,31
332,235	471,89
332,442	451,41
332,649	535,37
332,856	439,12
333,062	416,59
333,269	422,73
333,476	539,47
333,683	586,57
333,889	627,53
334,096	670,54
334,303	631,63
334,509	613,2
334,716	580,43
334,923	662,35
335,129	660,3
335,336	768,84
335,543	695,11
335,749	742,22
335,956	799,56
336,163	562
336,369	742,22
336,576	736,07
336,782	738,12
336,989	748,36
337,196	883,53
337,402	789,32
337,609	865,1
337,815	947,01
338,022	1030,98
338,228	990,02
338,435	1090,37
338,641	1078,08
338,848	1133,38
339,054	1188,68
339,261	1104,71
339,467	1172,29
339,674	1321,79
339,88	1268,55
340,087	1315,65
340,293	1303,36
340,5	1348,42
340,706	1309,51
340,912	1266,5
341,119	1301,31
341,325	1385,28
341,532	1397,57
341,738	1356,61
341,944	1585,98
342,151	1432,38
342,357	1510,21
342,563	1624,89
342,77	1579,84
342,976	1608,51
343,182	1616,7
343,389	1520,45
343,595	1477,44
343,801	1399,62
344,007	1510,21
344,214	1461,06
344,42	1567,55
344,626	1702,72
344,832	1635,13
345,039	1780,54
345,245	1737,53
345,451	1801,02
345,657	1858,36
345,864	1870,65
346,07	1907,51
346,276	2009,91
346,482	2095,93
346,688	2063,16
346,894	1946,42
347,1	2018,1
347,307	2165,56
347,513	2173,75
347,719	2202,42
347,925	2118,45
348,131	2134,84
348,337	2235,19
348,543	2214,71
348,749	2181,94
348,955	2313,01
349,161	2394,93
349,367	2374,45
349,573	2601,77
349,779	2628,4
349,985	2706,22
350,191	2661,16
350,397	2710,32
350,603	2810,67
350,809	2628,4
351,015	2773,8
351,221	2589,49
351,427	2693,93
351,633	2763,56
351,839	2884,39
352,045	2829,1
352,251	2763,56
352,457	2833,19
352,663	3033,9
352,869	2923,3
353,075	3097,38
353,28	3255,08
353,486	3312,42
353,692	3406,63
353,898	3365,67
354,104	3595,04
354,31	3480,35
354,515	3492,64
354,721	3832,6
354,927	3494,69
355,133	3537,7
355,339	3488,54
355,544	3437,34
355,75	3259,17
355,956	3240,74
356,162	3250,98
356,367	3085,09
356,573	2960,17
356,779	3164,97
356,984	2964,26
357,19	2972,46
357,396	2771,76
357,602	2855,72
357,807	2777,9
358,013	2808,62
358,218	2851,63
358,424	3087,14
358,63	3242,79
358,835	3668,77
359,041	3681,05
359,247	3980,06
359,452	4029,21
359,658	4141,85
359,863	4037,4
360,069	3978,01
360,274	3906,33
360,48	3988,25
360,685	3930,91
360,891	3801,88
361,097	3891,99
361,302	4031,26
361,508	4135,7
361,713	3975,96
361,918	4297,49
362,124	4201,24
362,329	4291,35
362,535	4535,06
362,74	4403,99
362,946	4582,16
363,151	4592,4
363,357	4700,94
363,562	4469,52
363,767	4784,91
363,973	4893,45
364,178	4786,96
364,383	4840,2
364,589	5208,84
364,794	5094,15
365	5450,5
365,205	5708,54
365,41	5839,61
365,615	5937,91
365,821	5847,8
366,026	6075,13
366,231	6169,34
366,437	5999,35
366,642	5997,31
366,847	6085,37
367,052	5905,15
367,258	5905,15
367,463	5798,65
367,668	5606,14
367,873	5827,32
368,078	5643,01
368,284	5872,38
368,489	5786,37
368,694	6116,09
368,899	6372,08
369,104	6402,8
369,309	6318,84
369,515	6413,04
369,72	6200,05
369,925	6036,22
370,13	6220,53
370,335	6249,21
370,54	6367,99
370,745	6206,2
370,95	6111,99
371,155	6318,84
371,36	5946,11
371,565	5976,83
371,77	5782,27
371,975	5651,2
372,18	5761,79
372,385	5692,16
372,59	5430,02
372,795	5280,52
373	5210,89
373,205	5106,44
373,41	5059,34
373,615	5075,72
373,82	4815,63
374,025	5034,76
374,23	4930,31
374,435	5188,36
374,64	5331,72
374,845	5647,1
375,05	5782,27
375,254	5749,5
375,459	5919,48
375,664	5905,15
375,869	5862,14
376,074	6206,2
376,279	6261,49
376,483	6632,18
376,688	6611,7
376,893	6789,87
377,098	7025,39
377,303	7232,23
377,507	7344,87
377,712	7400,16
377,917	7185,13
378,122	7047,91
378,326	6748,91
378,531	6445,81
378,736	6257,4
378,94	6073,08
379,145	6279,93
379,35	6183,67
379,554	6294,26
379,759	6271,73
379,964	6396,66
380,168	6425,33
380,373	6337,27
380,578	6421,24
380,782	6167,29
380,987	6058,74
381,191	5577,47
381,396	5309,19
381,601	5110,54
381,805	5012,23
382,01	4514,58
382,214	4264,72
382,419	4338,45
382,623	4242,2
382,828	4045,59
383,032	4223,76
383,237	4363,03
383,441	4643,6
383,646	4809,48
383,85	5200,65
384,055	5487,36
384,259	5661,44
384,464	5860,09
384,668	5694,21
384,872	5528,32
385,077	5673,73
385,281	5712,64
385,486	5815,04
385,69	5899
385,894	6025,98
386,099	5796,6
386,303	6099,7
386,507	6165,24
386,712	5868,28
386,916	5712,64
387,12	5921,53
387,325	6019,83
387,529	5835,52
387,733	6015,74
387,937	6191,86
388,142	6122,23
388,346	6490,87
388,55	6460,15
388,754	6849,26
388,959	6922,99
389,163	7328,49
389,367	7154,41
389,571	7385,83
389,775	7361,25
389,98	7674,59
390,184	7574,24
390,388	8256,22
390,592	7717,6
390,796	7903,96
391	7715,55
391,204	7639,78
391,409	7125,74
391,613	6925,04
391,817	6593,26
392,021	6007,55
392,225	5354,24
392,429	4815,63
392,633	4520,72
392,837	4291,35
393,041	4561,68
393,245	4995,85
393,449	5192,45
393,653	5821,18
393,857	6155
394,061	7056,11
394,265	7117,54
394,469	7828,19
394,673	7568,1
394,877	7549,67
395,081	8065,75
395,285	7158,5
395,489	6572,79
395,693	6193,91
395,896	5741,31
396,1	5411,59
396,304	5526,27
396,508	5595,9
396,712	5976,83
396,916	6449,91
397,12	7451,36
397,323	8063,71
397,527	8735,44
397,731	9398,98
397,935	9255,62
398,139	9900,73
398,342	10429,11
398,546	10218,17
398,75	10506,93
398,954	10773,17
399,157	10277,56
399,361	10668,72
399,565	10861,23
399,769	10793,65
399,972	10932,91
400,176	11334,31
400,38	11154,09
400,583	11645,6
400,787	11848,35
400,991	11270,83
401,194	11352,74
401,398	11803,3
401,601	11752,1
401,805	11393,7
402,009	11793,06
402,212	11532,97
402,416	11610,79
402,619	11661,99
402,823	11496,1
403,026	11492,01
403,23	11029,17
403,433	11555,49
403,637	11000,49
403,841	11203,24
404,044	11600,55
404,247	11807,39
404,451	11625,12
404,654	11563,68
404,858	11713,19
405,061	11197,1
405,265	11328,17
405,468	11750,05
405,672	11221,67
405,875	10709,68
406,078	11381,42
406,282	11330,22
406,485	11135,66
406,689	11561,64
406,892	11784,87
407,095	11037,36
407,299	11530,92
407,502	11711,14
407,705	12190,36
407,909	12196,51
408,112	12786,32
408,315	12997,26
408,518	12665,49
408,722	11774,63
408,925	11555,49
409,128	11901,6
409,331	11748
409,535	11682,47
409,738	11956,89
409,941	11944,61
410,144	11698,85
410,347	12556,95
410,551	12298,91
410,754	12714,64
410,957	12778,13
411,16	12839,57
411,363	12817,04
411,566	13224,59
411,769	12970,64
411,973	13044,37
412,176	12847,76
412,379	13619,85
412,582	13009,55
412,785	12896,91
412,988	13263,5
413,191	12941,97
413,394	12714,64
413,597	12946,06
413,8	13169,29
414,003	13331,08
414,206	12843,67
414,409	13275,79
414,612	12911,25
414,815	13208,2
415,018	12931,73
415,221	13134,48
415,424	13402,76
415,627	13308,55
415,83	13298,31
416,033	13224,59
416,235	13402,76
416,438	13611,65
416,641	12579,48
416,844	12866,19
417,047	12739,22
417,25	12573,33
417,453	12774,03
417,655	12446,36
417,858	12733,08
418,061	12645,01
418,264	12325,53
418,467	12755,6
418,669	12536,47
418,872	12589,72
419,075	12536,47
419,278	12712,6
419,48	12888,72
419,683	13169,29
419,886	12851,86
420,089	13961,86
420,291	13185,68
420,494	13734,53
420,697	13247,12
420,899	13187,72
421,102	12622,48
421,305	12995,22
421,507	12614,29
421,71	12710,55
421,912	12653,2
422,115	12806,8
422,318	12102,3
422,52	12399,26
422,723	12593,81
422,925	13189,77
423,128	12548,76
423,33	12716,69
423,533	12266,14
423,735	12995,22
423,938	12923,54
424,14	12858
424,343	12255,9
424,545	13171,34
424,748	12487,32
424,95	12307,1
425,153	13322,89
425,355	13087,37
425,558	13552,26
425,76	12417,69
425,962	12145,31
426,165	12110,49
426,367	12827,28
426,57	12894,86
426,772	12114,59
426,974	12853,91
427,177	12118,68
427,379	12389,02
427,581	12311,19
427,784	12675,73
427,986	11643,56
428,188	12071,58
428,39	12280,47
428,593	11475,62
428,795	11686,56
428,997	11242,15
429,2	10508,98
429,402	10672,82
429,604	10109,63
429,806	9964,22
430,008	10263,22
430,211	10670,77
430,413	11360,94
430,615	11858,59
430,817	12735,12
431,019	13019,79
431,221	13275,79
431,423	12892,82
431,626	13079,18
431,828	13144,72
432,03	13273,74
432,232	13353,61
432,434	13759,11
432,636	14275,2
432,838	13079,18
433,04	13058,7
433,242	13474,44
433,444	12874,38
433,646	13093,52
433,848	13806,21
434,05	13920,9
434,252	13333,13
434,454	13707,91
434,656	14209,66
434,858	14613,11
435,06	15245,93
435,262	14908,02
435,464	15624,81
435,666	15522,41
435,868	15053,42
436,07	15415,91
436,271	15776,36
436,473	14729,84
