Data from USB4F035431__8__14-15-02-111.txt Node

Date: Wed Feb 12 14:15:02 CET 2025
User: Versuch 234
Spectrometer: USB4F03543
Trigger mode: 4
Integration Time (sec): 1,000000E-1
Scans to average: 1
Electric dark correction enabled: true
Nonlinearity correction enabled: false
Boxcar width: 0
XAxis mode: Wavelengths
Number of Pixels in Spectrum: 3648
>>>>>Begin Spectral Data<<<<<
179,969	-162,3
180,181	-162,3
180,394	-162,3
180,606	-170,49
180,819	-156,16
181,031	19,97
181,243	89,6
181,456	-94,72
181,668	52,74
181,88	-35,33
182,093	1,54
182,305	-64
182,518	-16,9
182,73	118,27
182,942	-94,72
183,155	-20,99
183,367	44,54
183,579	32,26
183,791	77,31
184,004	-20,99
184,216	28,16
184,428	3,58
184,641	19,97
184,853	40,45
185,065	60,93
185,277	11,78
185,49	7,68
185,702	-4,61
185,914	17,92
186,126	5,63
186,338	83,45
186,551	36,35
186,763	101,89
186,975	-41,47
187,187	75,26
187,399	42,5
187,612	36,35
187,824	19,97
188,036	3,58
188,248	40,45
188,46	56,83
188,672	69,12
188,885	9,73
189,097	124,41
189,309	42,5
189,521	114,17
189,733	42,5
189,945	28,16
190,157	46,59
190,369	58,88
190,581	32,26
190,794	58,88
191,006	-23,04
191,218	-43,52
191,43	44,54
191,642	-59,9
191,854	-29,18
192,066	44,54
192,278	26,11
192,49	-37,38
192,702	56,83
192,914	99,84
193,126	73,21
193,338	54,78
193,55	28,16
193,762	56,83
193,974	-0,51
194,186	24,06
194,398	-25,09
194,61	69,12
194,822	-2,56
195,034	44,54
195,246	108,03
195,457	-0,51
195,669	44,54
195,881	85,5
196,093	-0,51
196,305	44,54
196,517	-16,9
196,729	69,12
196,941	44,54
197,153	87,55
197,365	87,55
197,576	87,55
197,788	-20,99
198	50,69
198,212	105,98
198,424	110,08
198,636	-8,7
198,847	17,92
199,059	32,26
199,271	22,02
199,483	58,88
199,695	73,21
199,906	67,07
200,118	-20,99
200,33	165,37
200,542	288,25
200,753	-10,75
200,965	-0,51
201,177	36,35
201,389	5,63
201,6	-29,18
201,812	28,16
202,024	42,5
202,235	-23,04
202,447	52,74
202,659	118,27
202,871	15,87
203,082	32,26
203,294	-37,38
203,506	44,54
203,717	11,78
203,929	99,84
204,141	42,5
204,352	26,11
204,564	-31,23
204,775	-29,18
204,987	151,04
205,199	52,74
205,41	30,21
205,622	24,06
205,833	3,58
206,045	36,35
206,257	58,88
206,468	15,87
206,68	24,06
206,891	50,69
207,103	42,5
207,314	3,58
207,526	83,45
207,737	1,54
207,949	-47,62
208,16	-14,85
208,372	-16,9
208,583	-8,7
208,795	26,11
209,006	34,3
209,218	22,02
209,429	-20,99
209,641	-45,57
209,852	93,69
210,064	32,26
210,275	13,82
210,487	44,54
210,698	73,21
210,909	-4,61
211,121	17,92
211,332	34,3
211,544	-0,51
211,755	79,36
211,966	99,84
212,178	-25,09
212,389	108,03
212,6	48,64
212,812	91,65
213,023	44,54
213,234	75,26
213,446	11,78
213,657	11,78
213,868	3,58
214,08	97,79
214,291	103,93
214,502	52,74
214,714	-10,75
214,925	-6,66
215,136	-29,18
215,347	38,4
215,559	-16,9
215,77	26,11
215,981	77,31
216,192	-45,57
216,404	48,64
216,615	60,93
216,826	42,5
217,037	-39,42
217,249	34,3
217,46	110,08
217,671	-33,28
217,882	-12,8
218,093	22,02
218,304	60,93
218,516	32,26
218,727	-29,18
218,938	-20,99
219,149	140,8
219,36	93,69
219,571	36,35
219,782	28,16
219,993	24,06
220,205	-41,47
220,416	79,36
220,627	42,5
220,838	52,74
221,049	163,33
221,26	91,65
221,471	-16,9
221,682	1,54
221,893	52,74
222,104	3,58
222,315	-43,52
222,526	-74,24
222,737	11,78
222,948	-29,18
223,159	24,06
223,37	30,21
223,581	17,92
223,792	-29,18
224,003	71,17
224,214	-45,57
224,425	40,45
224,636	-82,43
224,847	140,8
225,058	30,21
225,269	54,78
225,48	28,16
225,691	-35,33
225,902	69,12
226,112	89,6
226,323	5,63
226,534	110,08
226,745	11,78
226,956	-23,04
227,167	36,35
227,378	26,11
227,589	-20,99
227,799	140,8
228,01	50,69
228,221	17,92
228,432	77,31
228,643	-64
228,853	-12,8
229,064	105,98
229,275	19,97
229,486	11,78
229,697	11,78
229,907	40,45
230,118	15,87
230,329	40,45
230,54	17,92
230,75	108,03
230,961	60,93
231,172	91,65
231,383	26,11
231,593	-10,75
231,804	65,02
232,015	42,5
232,225	97,79
232,436	17,92
232,647	24,06
232,857	34,3
233,068	28,16
233,279	124,41
233,489	48,64
233,7	1,54
233,91	-12,8
234,121	-45,57
234,332	89,6
234,542	-37,38
234,753	-86,53
234,964	52,74
235,174	17,92
235,385	11,78
235,595	83,45
235,806	114,17
236,016	-10,75
236,227	30,21
236,437	26,11
236,648	50,69
236,858	26,11
237,069	-37,38
237,279	60,93
237,49	73,21
237,7	44,54
237,911	54,78
238,121	-70,14
238,332	-55,81
238,542	56,83
238,753	24,06
238,963	22,02
239,174	56,83
239,384	3,58
239,595	-12,8
239,805	-14,85
240,015	52,74
240,226	24,06
240,436	26,11
240,647	15,87
240,857	36,35
241,067	40,45
241,278	120,32
241,488	56,83
241,698	67,07
241,909	30,21
242,119	30,21
242,329	60,93
242,54	65,02
242,75	40,45
242,96	-70,14
243,171	91,65
243,381	83,45
243,591	54,78
243,801	71,17
244,012	79,36
244,222	44,54
244,432	-72,19
244,642	-20,99
244,853	1,54
245,063	-0,51
245,273	36,35
245,483	79,36
245,694	-0,51
245,904	28,16
246,114	89,6
246,324	60,93
246,534	97,79
246,744	7,68
246,955	-29,18
247,165	83,45
247,375	134,65
247,585	19,97
247,795	46,59
248,005	15,87
248,215	105,98
248,425	36,35
248,636	81,41
248,846	58,88
249,056	54,78
249,266	56,83
249,476	52,74
249,686	79,36
249,896	1,54
250,106	36,35
250,316	15,87
250,526	108,03
250,736	48,64
250,946	134,65
251,156	19,97
251,366	28,16
251,576	17,92
251,786	138,75
251,996	36,35
252,206	36,35
252,416	48,64
252,626	28,16
252,836	-8,7
253,046	60,93
253,256	110,08
253,466	52,74
253,676	60,93
253,885	-6,66
254,095	9,73
254,305	58,88
254,515	13,82
254,725	24,06
254,935	22,02
255,145	-6,66
255,355	15,87
255,564	44,54
255,774	13,82
255,984	110,08
256,194	118,27
256,404	11,78
256,614	44,54
256,823	75,26
257,033	52,74
257,243	19,97
257,453	-20,99
257,662	13,82
257,872	28,16
258,082	-20,99
258,292	28,16
258,501	165,37
258,711	155,13
258,921	77,31
259,131	-66,05
259,34	38,4
259,55	32,26
259,76	17,92
259,969	28,16
260,179	-37,38
260,389	67,07
260,598	85,5
260,808	60,93
261,018	-8,7
261,227	69,12
261,437	1,54
261,647	105,98
261,856	5,63
262,066	69,12
262,275	83,45
262,485	-6,66
262,694	114,17
262,904	-25,09
263,114	83,45
263,323	7,68
263,533	5,63
263,742	-6,66
263,952	-18,94
264,161	-29,18
264,371	17,92
264,58	1,54
264,79	-0,51
264,999	77,31
265,209	34,3
265,418	65,02
265,628	60,93
265,837	114,17
266,047	40,45
266,256	42,5
266,466	13,82
266,675	52,74
266,884	9,73
267,094	42,5
267,303	130,56
267,513	93,69
267,722	155,13
267,931	50,69
268,141	77,31
268,35	52,74
268,559	19,97
268,769	32,26
268,978	3,58
269,187	-14,85
269,397	60,93
269,606	-51,71
269,815	-8,7
270,025	3,58
270,234	48,64
270,443	-23,04
270,653	52,74
270,862	28,16
271,071	69,12
271,28	28,16
271,49	9,73
271,699	24,06
271,908	60,93
272,117	60,93
272,327	-4,61
272,536	42,5
272,745	48,64
272,954	-25,09
273,163	44,54
273,372	40,45
273,582	-20,99
273,791	73,21
274	5,63
274,209	40,45
274,418	85,5
274,627	65,02
274,836	13,82
275,046	67,07
275,255	15,87
275,464	-12,8
275,673	67,07
275,882	15,87
276,091	-4,61
276,3	19,97
276,509	130,56
276,718	44,54
276,927	-35,33
277,136	50,69
277,345	3,58
277,554	50,69
277,763	67,07
277,972	36,35
278,181	126,46
278,39	42,5
278,599	11,78
278,808	17,92
279,017	48,64
279,226	75,26
279,435	40,45
279,644	-12,8
279,853	73,21
280,062	93,69
280,271	-4,61
280,48	13,82
280,688	140,8
280,897	93,69
281,106	-41,47
281,315	-20,99
281,524	9,73
281,733	-12,8
281,942	-23,04
282,151	77,31
282,359	159,23
282,568	-82,43
282,777	42,5
282,986	28,16
283,195	79,36
283,403	97,79
283,612	11,78
283,821	9,73
284,03	-29,18
284,238	71,17
284,447	-14,85
284,656	28,16
284,865	122,37
285,073	42,5
285,282	83,45
285,491	-18,94
285,699	-47,62
285,908	60,93
286,117	15,87
286,325	-8,7
286,534	52,74
286,743	110,08
286,951	42,5
287,16	110,08
287,369	48,64
287,577	34,3
287,786	71,17
287,995	17,92
288,203	-49,66
288,412	60,93
288,62	48,64
288,829	-29,18
289,037	67,07
289,246	60,93
289,455	11,78
289,663	36,35
289,872	77,31
290,08	-23,04
290,289	97,79
290,497	-10,75
290,706	56,83
290,914	-39,42
291,123	-41,47
291,331	52,74
291,54	148,99
291,748	93,69
291,957	116,22
292,165	56,83
292,373	60,93
292,582	-10,75
292,79	65,02
292,999	69,12
293,207	124,41
293,415	38,4
293,624	-47,62
293,832	81,41
294,041	7,68
294,249	-14,85
294,457	-12,8
294,666	81,41
294,874	-12,8
295,082	44,54
295,291	69,12
295,499	89,6
295,707	56,83
295,915	38,4
296,124	83,45
296,332	67,07
296,54	99,84
296,749	32,26
296,957	85,5
297,165	44,54
297,373	-61,95
297,581	3,58
297,79	19,97
297,998	38,4
298,206	-14,85
298,414	58,88
298,622	85,5
298,831	122,37
299,039	-47,62
299,247	7,68
299,455	30,21
299,663	112,13
299,871	11,78
300,08	60,93
300,288	69,12
300,496	28,16
300,704	32,26
300,912	30,21
301,12	73,21
301,328	30,21
301,536	19,97
301,744	-31,23
301,952	93,69
302,16	17,92
302,368	52,74
302,576	105,98
302,784	11,78
302,992	-37,38
303,2	7,68
303,408	58,88
303,616	-2,56
303,824	67,07
304,032	65,02
304,24	65,02
304,448	36,35
304,656	-45,57
304,864	124,41
305,072	44,54
305,28	93,69
305,488	19,97
305,696	81,41
305,904	101,89
306,111	-6,66
306,319	58,88
306,527	42,5
306,735	34,3
306,943	93,69
307,151	32,26
307,359	-2,56
307,566	128,51
307,774	108,03
307,982	81,41
308,19	32,26
308,398	5,63
308,605	-4,61
308,813	-12,8
309,021	-12,8
309,229	151,04
309,436	-4,61
309,644	79,36
309,852	28,16
310,06	151,04
310,267	3,58
310,475	36,35
310,683	97,79
310,89	67,07
311,098	62,98
311,306	56,83
311,513	69,12
311,721	34,3
311,929	46,59
312,136	50,69
312,344	-4,61
312,552	81,41
312,759	56,83
312,967	46,59
313,174	1,54
313,382	87,55
313,589	19,97
313,797	52,74
314,005	52,74
314,212	44,54
314,42	28,16
314,627	13,82
314,835	-49,66
315,042	103,93
315,25	-33,28
315,457	28,16
315,665	3,58
315,872	60,93
316,08	52,74
316,287	54,78
316,495	278,01
316,702	28,16
316,909	19,97
317,117	85,5
317,324	71,17
317,532	99,84
317,739	17,92
317,946	-0,51
318,154	-33,28
318,361	7,68
318,569	46,59
318,776	3,58
318,983	36,35
319,191	83,45
319,398	24,06
319,605	36,35
319,813	56,83
320,02	28,16
320,227	65,02
320,434	110,08
320,642	26,11
320,849	77,31
321,056	-10,75
321,264	44,54
321,471	46,59
321,678	30,21
321,885	65,02
322,092	99,84
322,3	89,6
322,507	56,83
322,714	-14,85
322,921	89,6
323,128	19,97
323,336	1,54
323,543	91,65
323,75	101,89
323,957	85,5
324,164	26,11
324,371	60,93
324,578	-41,47
324,786	73,21
324,993	124,41
325,2	3,58
325,407	-23,04
325,614	56,83
325,821	126,46
326,028	228,86
326,235	46,59
326,442	77,31
326,649	28,16
326,856	189,95
327,063	99,84
327,27	19,97
327,477	30,21
327,684	-55,81
327,891	19,97
328,098	69,12
328,305	36,35
328,512	1,54
328,719	69,12
328,926	165,37
329,133	-12,8
329,34	151,04
329,546	101,89
329,753	99,84
329,96	-37,38
330,167	93,69
330,374	17,92
330,581	56,83
330,788	-31,23
330,995	7,68
331,201	67,07
331,408	99,84
331,615	44,54
331,822	50,69
332,029	-4,61
332,235	48,64
332,442	44,54
332,649	85,5
332,856	-23,04
333,062	44,54
333,269	-4,61
333,476	28,16
333,683	36,35
333,889	48,64
334,096	77,31
334,303	93,69
334,509	-4,61
334,716	32,26
334,923	-10,75
335,129	46,59
335,336	93,69
335,543	52,74
335,749	32,26
335,956	146,94
336,163	9,73
336,369	126,46
336,576	77,31
336,782	50,69
336,989	-0,51
337,196	-4,61
337,402	54,78
337,609	-47,62
337,815	69,12
338,022	103,93
338,228	105,98
338,435	159,23
338,641	95,74
338,848	89,6
339,054	130,56
339,261	11,78
339,467	-6,66
339,674	81,41
339,88	40,45
340,087	-6,66
340,293	65,02
340,5	32,26
340,706	81,41
340,912	11,78
341,119	58,88
341,325	15,87
341,532	15,87
341,738	120,32
341,944	42,5
342,151	110,08
342,357	7,68
342,563	28,16
342,77	15,87
342,976	50,69
343,182	140,8
343,389	60,93
343,595	-31,23
343,801	-20,99
344,007	67,07
344,214	-20,99
344,42	50,69
344,626	32,26
344,832	28,16
345,039	83,45
345,245	89,6
345,451	52,74
345,657	69,12
345,864	71,17
346,07	65,02
346,276	118,27
346,482	136,7
346,688	87,55
346,894	-33,28
347,1	101,89
347,307	-12,8
347,513	161,28
347,719	44,54
347,925	134,65
348,131	44,54
348,337	122,37
348,543	44,54
348,749	24,06
348,955	81,41
349,161	34,3
349,367	30,21
349,573	105,98
349,779	79,36
349,985	3,58
350,191	65,02
350,397	69,12
350,603	26,11
350,809	-4,61
351,015	7,68
351,221	97,79
351,427	124,41
351,633	83,45
351,839	110,08
352,045	114,17
352,251	101,89
352,457	99,84
352,663	9,73
352,869	-10,75
353,075	34,3
353,28	36,35
353,486	-10,75
353,692	52,74
353,898	-12,8
354,104	26,11
354,31	69,12
354,515	15,87
354,721	60,93
354,927	65,02
355,133	142,85
355,339	114,17
355,544	56,83
355,75	58,88
355,956	114,17
356,162	34,3
356,367	77,31
356,573	89,6
356,779	26,11
356,984	67,07
357,19	105,98
357,396	44,54
357,602	103,93
357,807	77,31
358,013	93,69
358,218	48,64
358,424	36,35
358,63	114,17
358,835	34,3
359,041	32,26
359,247	19,97
359,452	112,13
359,658	-12,8
359,863	60,93
360,069	103,93
360,274	48,64
360,48	65,02
360,685	62,98
360,891	124,41
361,097	83,45
361,302	101,89
361,508	81,41
361,713	60,93
361,918	124,41
362,124	69,12
362,329	85,5
362,535	87,55
362,74	36,35
362,946	105,98
363,151	9,73
363,357	50,69
363,562	48,64
363,767	87,55
363,973	69,12
364,178	19,97
364,383	40,45
364,589	124,41
364,794	42,5
365	108,03
365,205	122,37
365,41	85,5
365,615	65,02
365,821	50,69
366,026	48,64
366,231	62,98
366,437	114,17
366,642	54,78
366,847	101,89
367,052	89,6
367,258	-18,94
367,463	-2,56
367,668	44,54
367,873	67,07
368,078	181,76
368,284	-111,1
368,489	19,97
368,694	103,93
368,899	73,21
369,104	91,65
369,309	87,55
369,515	22,02
369,72	85,5
369,925	83,45
370,13	124,41
370,335	116,22
370,54	112,13
370,745	122,37
370,95	99,84
371,155	155,13
371,36	101,89
371,565	101,89
371,77	91,65
371,975	126,46
372,18	148,99
372,385	87,55
372,59	124,41
372,795	52,74
373	118,27
373,205	134,65
373,41	60,93
373,615	73,21
373,82	87,55
374,025	83,45
374,23	56,83
374,435	75,26
374,64	77,31
374,845	116,22
375,05	69,12
375,254	128,51
375,459	85,5
375,664	11,78
375,869	118,27
376,074	93,69
376,279	34,3
376,483	19,97
376,688	1,54
376,893	105,98
377,098	69,12
377,303	50,69
377,507	124,41
377,712	179,71
377,917	105,98
378,122	105,98
378,326	67,07
378,531	65,02
378,736	132,61
378,94	13,82
379,145	140,8
379,35	142,85
379,554	118,27
379,759	101,89
379,964	114,17
380,168	60,93
380,373	187,9
380,578	136,7
380,782	114,17
380,987	87,55
381,191	17,92
381,396	146,94
381,601	89,6
381,805	112,13
382,01	261,63
382,214	165,37
382,419	69,12
382,623	42,5
382,828	52,74
383,032	-16,9
383,237	34,3
383,441	44,54
383,646	97,79
383,85	52,74
384,055	52,74
384,259	85,5
384,464	15,87
384,668	91,65
384,872	67,07
385,077	46,59
385,281	97,79
385,486	73,21
385,69	110,08
385,894	144,89
386,099	128,51
386,303	110,08
386,507	148,99
386,712	151,04
386,916	58,88
387,12	116,22
387,325	165,37
387,529	167,42
387,733	71,17
387,937	114,17
388,142	103,93
388,346	36,35
388,55	151,04
388,754	85,5
388,959	167,42
389,163	91,65
389,367	81,41
389,571	97,79
389,775	134,65
389,98	126,46
390,184	140,8
390,388	58,88
390,592	134,65
390,796	222,72
391	110,08
391,204	83,45
391,409	85,5
391,613	42,5
391,817	44,54
392,021	126,46
392,225	91,65
392,429	52,74
392,633	50,69
392,837	77,31
393,041	110,08
393,245	183,81
393,449	85,5
393,653	114,17
393,857	148,99
394,061	159,23
394,265	126,46
394,469	198,14
394,673	173,57
394,877	155,13
395,081	144,89
395,285	208,38
395,489	126,46
395,693	247,29
395,896	161,28
396,1	187,9
396,304	192
396,508	105,98
396,712	140,8
396,916	132,61
397,12	163,33
397,323	226,81
397,527	196,09
397,731	237,05
397,935	116,22
398,139	239,1
398,342	255,48
398,546	181,76
398,75	175,61
398,954	243,2
399,157	224,76
399,361	241,15
399,565	204,28
399,769	316,92
399,972	230,91
400,176	239,1
400,38	278,01
400,583	224,76
400,787	327,16
400,991	261,63
401,194	241,15
401,398	347,64
401,601	167,42
401,805	310,78
402,009	263,68
402,212	280,06
402,416	421,37
402,619	167,42
402,823	353,79
403,026	306,68
403,23	323,07
403,433	361,98
403,637	323,07
403,841	314,88
404,044	314,88
404,247	261,63
404,451	294,4
404,654	292,35
404,858	339,45
405,061	396,79
405,265	343,55
405,468	347,64
405,672	331,26
405,875	435,71
406,078	372,22
406,282	331,26
406,485	296,44
406,689	378,36
406,892	441,85
407,095	329,21
407,299	333,31
407,502	470,52
407,705	339,45
407,909	437,75
408,112	454,14
408,315	417,27
408,518	478,71
408,722	382,46
408,925	361,98
409,128	480,76
409,331	460,28
409,535	513,53
409,738	450,04
409,941	640,5
410,144	454,14
410,347	568,82
410,551	562,68
410,754	503,29
410,957	568,82
411,16	534,01
411,363	574,97
411,566	650,74
411,769	574,97
411,973	636,41
412,176	656,89
412,379	691,7
412,582	654,84
412,785	648,69
412,988	660,98
413,191	622,07
413,394	634,36
413,597	634,36
413,8	681,46
414,003	730,61
414,206	593,4
414,409	720,37
414,612	763,38
414,815	681,46
415,018	755,19
415,221	708,09
415,424	814,58
415,627	841,2
415,83	863,73
416,033	833,01
416,235	951,79
416,438	968,18
416,641	953,84
416,844	863,73
417,047	873,97
417,25	880,11
417,453	978,42
417,655	1064,43
417,858	1097,2
418,061	1043,95
418,264	1140,21
418,467	1138,16
418,669	1234,41
418,872	1269,23
419,075	1168,88
419,278	1220,08
419,48	1478,12
419,683	1328,62
419,886	1297,9
420,089	1482,22
420,291	1545,7
420,494	1506,79
420,697	1531,37
420,899	1574,38
421,102	1619,43
421,305	1623,53
421,507	1646,05
421,71	1699,3
421,912	1926,63
422,115	1863,14
422,318	1943,01
422,52	2031,07
422,723	2104,8
422,925	2246,11
423,128	2272,73
423,33	2211,29
423,533	2203,1
423,735	2465,24
423,938	2508,25
424,14	2489,82
424,343	2647,51
424,545	2780,63
424,748	2645,46
424,95	2788,82
425,153	3065,3
425,355	3032,53
425,558	3300,81
425,76	3247,57
425,962	3253,71
426,165	3229,13
426,367	3671,5
426,57	3927,49
426,772	3655,11
426,974	3941,83
427,177	3802,57
427,379	4148,67
427,581	4130,24
427,784	4416,96
427,986	4187,58
428,188	4701,62
428,39	4779,45
428,593	4820,41
428,795	5365,17
428,997	5225,9
429,2	5174,71
429,402	5625,26
429,604	5660,07
429,806	5676,46
430,008	5909,93
430,211	6026,66
430,413	6378,91
430,615	6417,82
430,817	6815,13
431,019	6974,87
431,221	7234,96
431,423	7024,02
431,626	7564,68
431,828	7593,36
432,03	7857,54
432,232	7998,85
432,434	8486,27
432,636	8666,49
432,838	8646,01
433,04	8994,17
433,242	9217,4
433,444	9190,77
433,646	9653,61
433,848	10198,37
434,05	10356,07
434,252	10370,4
434,454	10491,23
434,656	11183,45
434,858	11486,54
435,06	11775,31
435,262	11687,25
435,464	12514,63
435,666	12944,7
435,868	12578,11
436,07	13528,37
436,271	14257,45
436,473	14044,46
436,675	14015,79
436,877	14533,92
437,079	14038,31
437,281	15060,25
437,482	15596,82
437,684	16385,29
437,886	15895,82
438,088	16340,23
438,29	16483,59
438,491	17183,99
438,693	17247,48
438,895	18347,24
439,097	19920,08
439,298	19012,83
439,5	19393,75
439,702	20098,25
439,903	19729,62
440,105	21009,6
440,307	22047,92
440,508	22035,63
440,71	23008,42
440,912	22873,25
441,113	22764,71
441,315	23682,2
441,517	24874,12
441,718	25889,91
441,92	26131,57
442,121	25494,65
442,323	26924,13
442,524	28165,2
442,726	29195,33
442,928	29324,35
443,129	30323,76
443,331	28863,56
443,532	30112,82
443,734	31296,55
443,935	32828,43
444,136	30655,53
444,338	33315,84
444,539	33272,84
444,741	34419,7
444,942	34280,44
445,144	35578,85
