Data from USB4F035431__5__14-10-19-738.txt Node

Date: Wed Feb 12 14:10:19 CET 2025
User: Versuch 234
Spectrometer: USB4F03543
Trigger mode: 4
Integration Time (sec): 1,000000E-1
Scans to average: 1
Electric dark correction enabled: true
Nonlinearity correction enabled: false
Boxcar width: 0
XAxis mode: Wavelengths
Number of Pixels in Spectrum: 3648
>>>>>Begin Spectral Data<<<<<
179,969	-57,34
180,181	-57,34
180,394	-57,34
180,606	-167,93
180,819	-83,97
181,031	57,34
181,243	49,15
181,456	-38,91
181,668	26,62
181,88	47,1
182,093	-20,48
182,305	-22,53
182,518	-45,06
182,73	34,82
182,942	-16,38
183,155	-63,49
183,367	-8,19
183,579	36,86
183,791	32,77
184,004	22,53
184,216	-6,14
184,428	53,25
184,641	22,53
184,853	-2,05
185,065	-77,82
185,277	49,15
185,49	-65,53
185,702	-34,82
185,914	34,82
186,126	-28,67
186,338	67,58
186,551	24,58
186,763	16,38
186,975	-30,72
187,187	43,01
187,399	-63,49
187,612	40,96
187,824	30,72
188,036	-24,58
188,248	55,3
188,46	53,25
188,672	30,72
188,885	-18,43
189,097	139,26
189,309	-6,14
189,521	32,77
189,733	43,01
189,945	-8,19
190,157	0
190,369	61,44
190,581	-2,05
190,794	73,73
191,006	-65,53
191,218	-14,34
191,43	16,38
191,642	-30,72
191,854	51,2
192,066	26,62
192,278	51,2
192,49	-53,25
192,702	40,96
192,914	49,15
193,126	2,05
193,338	73,73
193,55	-6,14
193,762	-47,1
193,974	-22,53
194,186	-16,38
194,398	18,43
194,61	83,97
194,822	63,49
195,034	10,24
195,246	75,77
195,457	-36,86
195,669	108,54
195,881	-22,53
196,093	-38,91
196,305	55,3
196,517	-47,1
196,729	38,91
196,941	-43,01
197,153	-14,34
197,365	92,16
197,576	-49,15
197,788	10,24
198	32,77
198,212	63,49
198,424	24,58
198,636	-43,01
198,847	2,05
199,059	0
199,271	-14,34
199,483	18,43
199,695	2,05
199,906	0
200,118	10,24
200,33	98,3
200,542	311,29
200,753	-14,34
200,965	59,39
201,177	-16,38
201,389	81,92
201,6	-63,49
201,812	-18,43
202,024	34,82
202,235	10,24
202,447	-30,72
202,659	69,63
202,871	55,3
203,082	-24,58
203,294	-49,15
203,506	-30,72
203,717	83,97
203,929	16,38
204,141	-34,82
204,352	65,54
204,564	-8,19
204,775	-8,19
204,987	133,12
205,199	79,87
205,41	55,3
205,622	12,29
205,833	71,68
206,045	-38,91
206,257	-14,34
206,468	-49,15
206,68	-6,14
206,891	75,77
207,103	-6,14
207,314	30,72
207,526	51,2
207,737	-51,2
207,949	0
208,16	86,01
208,372	24,58
208,583	26,62
208,795	-22,53
209,006	34,82
209,218	-24,58
209,429	-102,4
209,641	16,38
209,852	-47,1
210,064	51,2
210,275	-8,19
210,487	63,49
210,698	14,34
210,909	34,82
211,121	34,82
211,332	57,34
211,544	45,06
211,755	30,72
211,966	36,86
212,178	-40,96
212,389	75,77
212,6	30,72
212,812	102,4
213,023	22,53
213,234	32,77
213,446	65,54
213,657	-61,44
213,868	45,06
214,08	112,64
214,291	51,2
214,502	57,34
214,714	-32,77
214,925	40,96
215,136	59,39
215,347	-22,53
215,559	-28,67
215,77	-24,58
215,981	94,21
216,192	-26,62
216,404	-55,3
216,615	55,3
216,826	65,54
217,037	24,58
217,249	18,43
217,46	81,92
217,671	0
217,882	8,19
218,093	-34,82
218,304	34,82
218,516	22,53
218,727	2,05
218,938	-51,2
219,149	8,19
219,36	-18,43
219,571	47,1
219,782	-14,34
219,993	88,06
220,205	67,58
220,416	110,59
220,627	28,67
220,838	59,39
221,049	147,45
221,26	83,97
221,471	10,24
221,682	53,25
221,893	-6,14
222,104	-45,06
222,315	-53,25
222,526	-24,58
222,737	43,01
222,948	-47,1
223,159	-10,24
223,37	77,82
223,581	47,1
223,792	32,77
224,003	12,29
224,214	-49,15
224,425	28,67
224,636	-10,24
224,847	106,49
225,058	18,43
225,269	4,1
225,48	-2,05
225,691	-28,67
225,902	45,06
226,112	-22,53
226,323	-63,49
226,534	-8,19
226,745	-55,3
226,956	6,14
227,167	49,15
227,378	-6,14
227,589	-2,05
227,799	118,78
228,01	67,58
228,221	22,53
228,432	-16,38
228,643	-34,82
228,853	32,77
229,064	4,1
229,275	51,2
229,486	2,05
229,697	-79,87
229,907	-2,05
230,118	34,82
230,329	14,34
230,54	-47,1
230,75	36,86
230,961	51,2
231,172	-14,34
231,383	18,43
231,593	51,2
231,804	30,72
232,015	40,96
232,225	65,54
232,436	0
232,647	100,35
232,857	57,34
233,068	-8,19
233,279	16,38
233,489	30,72
233,7	22,53
233,91	30,72
234,121	34,82
234,332	2,05
234,542	-2,05
234,753	14,34
234,964	67,58
235,174	-26,62
235,385	34,82
235,595	-45,06
235,806	43,01
236,016	53,25
236,227	-32,77
236,437	-26,62
236,648	2,05
236,858	26,62
237,069	10,24
237,279	-38,91
237,49	-18,43
237,7	10,24
237,911	30,72
238,121	-79,87
238,332	-4,1
238,542	34,82
238,753	-10,24
238,963	-71,68
239,174	-6,14
239,384	0
239,595	16,38
239,805	-24,58
240,015	22,53
240,226	-16,38
240,436	28,67
240,647	-63,49
240,857	6,14
241,067	75,77
241,278	139,26
241,488	26,62
241,698	38,91
241,909	-6,14
242,119	-8,19
242,329	71,68
242,54	-24,58
242,75	-18,43
242,96	-30,72
243,171	26,62
243,381	71,68
243,591	-47,1
243,801	40,96
244,012	51,2
244,222	18,43
244,432	0
244,642	-28,67
244,853	-30,72
245,063	20,48
245,273	55,3
245,483	32,77
245,694	-61,44
245,904	14,34
246,114	73,73
246,324	26,62
246,534	67,58
246,744	-79,87
246,955	-22,53
247,165	34,82
247,375	157,69
247,585	59,39
247,795	59,39
248,005	30,72
248,215	12,29
248,425	10,24
248,636	145,41
248,846	-10,24
249,056	0
249,266	-79,87
249,476	-55,3
249,686	20,48
249,896	18,43
250,106	-24,58
250,316	22,53
250,526	34,82
250,736	2,05
250,946	86,01
251,156	75,77
251,366	-38,91
251,576	40,96
251,786	73,73
251,996	-6,14
252,206	-18,43
252,416	-12,29
252,626	18,43
252,836	-51,2
253,046	10,24
253,256	59,39
253,466	83,97
253,676	-4,1
253,885	-14,34
254,095	-40,96
254,305	2,05
254,515	-24,58
254,725	-49,15
254,935	-20,48
255,145	67,58
255,355	6,14
255,564	-8,19
255,774	-14,34
255,984	51,2
256,194	-55,3
256,404	45,06
256,614	98,3
256,823	75,77
257,033	90,11
257,243	51,2
257,453	75,77
257,662	-10,24
257,872	26,62
258,082	16,38
258,292	-55,3
258,501	110,59
258,711	108,54
258,921	63,49
259,131	-47,1
259,34	-24,58
259,55	51,2
259,76	18,43
259,969	-51,2
260,179	-14,34
260,389	-45,06
260,598	30,72
260,808	32,77
261,018	26,62
261,227	40,96
261,437	-8,19
261,647	38,91
261,856	18,43
262,066	94,21
262,275	40,96
262,485	2,05
262,694	34,82
262,904	26,62
263,114	-16,38
263,323	-18,43
263,533	88,06
263,742	-28,67
263,952	8,19
264,161	-24,58
264,371	-65,53
264,58	71,68
264,79	40,96
264,999	28,67
265,209	77,82
265,418	26,62
265,628	34,82
265,837	-14,34
266,047	83,97
266,256	124,93
266,466	10,24
266,675	51,2
266,884	34,82
267,094	4,1
267,303	118,78
267,513	-45,06
267,722	90,11
267,931	10,24
268,141	-45,06
268,35	-4,1
268,559	108,54
268,769	67,58
268,978	2,05
269,187	-24,58
269,397	30,72
269,606	-26,62
269,815	2,05
270,025	-8,19
270,234	83,97
270,443	-14,34
270,653	2,05
270,862	36,86
271,071	43,01
271,28	-38,91
271,49	73,73
271,699	-77,82
271,908	40,96
272,117	2,05
272,327	6,14
272,536	34,82
272,745	-2,05
272,954	-40,96
273,163	38,91
273,372	92,16
273,582	-61,44
273,791	18,43
274	55,3
274,209	-40,96
274,418	-6,14
274,627	122,88
274,836	12,29
275,046	49,15
275,255	-6,14
275,464	24,58
275,673	-14,34
275,882	32,77
276,091	49,15
276,3	75,77
276,509	6,14
276,718	26,62
276,927	16,38
277,136	38,91
277,345	24,58
277,554	-57,34
277,763	92,16
277,972	24,58
278,181	40,96
278,39	-47,1
278,599	-12,29
278,808	18,43
279,017	28,67
279,226	-88,06
279,435	-12,29
279,644	-18,43
279,853	110,59
280,062	112,64
280,271	-6,14
280,48	0
280,688	16,38
280,897	34,82
281,106	-43,01
281,315	26,62
281,524	2,05
281,733	-22,53
281,942	43,01
282,151	43,01
282,359	59,39
282,568	10,24
282,777	0
282,986	10,24
283,195	81,92
283,403	67,58
283,612	-63,49
283,821	-14,34
284,03	43,01
284,238	57,34
284,447	10,24
284,656	10,24
284,865	10,24
285,073	-34,82
285,282	10,24
285,491	-88,06
285,699	-6,14
285,908	40,96
286,117	75,77
286,325	-14,34
286,534	108,54
286,743	22,53
286,951	10,24
287,16	69,63
287,369	34,82
287,577	79,87
287,786	-18,43
287,995	-63,49
288,203	-83,97
288,412	92,16
288,62	59,39
288,829	4,1
289,037	6,14
289,246	43,01
289,455	-73,73
289,663	83,97
289,872	155,65
290,08	2,05
290,289	122,88
290,497	-43,01
290,706	65,54
290,914	26,62
291,123	-61,44
291,331	28,67
291,54	124,93
291,748	110,59
291,957	10,24
292,165	51,2
292,373	10,24
292,582	49,15
292,79	-2,05
292,999	96,25
293,207	24,58
293,415	34,82
293,624	-30,72
293,832	12,29
294,041	10,24
294,249	18,43
294,457	22,53
294,666	92,16
294,874	-71,68
295,082	47,1
295,291	51,2
295,499	-2,05
295,707	-6,14
295,915	-34,82
296,124	75,77
296,332	38,91
296,54	34,82
296,749	10,24
296,957	10,24
297,165	-24,58
297,373	-14,34
297,581	32,77
297,79	26,62
297,998	2,05
298,206	-67,58
298,414	-10,24
298,622	18,43
298,831	43,01
299,039	6,14
299,247	51,2
299,455	2,05
299,663	73,73
299,871	20,48
300,08	40,96
300,288	10,24
300,496	24,58
300,704	-34,82
300,912	16,38
301,12	-26,62
301,328	6,14
301,536	16,38
301,744	-77,82
301,952	26,62
302,16	-38,91
302,368	-26,62
302,576	26,62
302,784	65,54
302,992	-90,11
303,2	22,53
303,408	-22,53
303,616	22,53
303,824	114,69
304,032	32,77
304,24	81,92
304,448	83,97
304,656	-40,96
304,864	47,1
305,072	4,1
305,28	18,43
305,488	-6,14
305,696	67,58
305,904	-40,96
306,111	-59,39
306,319	26,62
306,527	43,01
306,735	65,54
306,943	108,54
307,151	10,24
307,359	-36,86
307,566	83,97
307,774	32,77
307,982	77,82
308,19	-92,16
308,398	16,38
308,605	63,49
308,813	-49,15
309,021	-22,53
309,229	47,1
309,436	55,3
309,644	-51,2
309,852	-16,38
310,06	112,64
310,267	38,91
310,475	-88,06
310,683	90,11
310,89	65,54
311,098	94,21
311,306	-34,82
311,513	24,58
311,721	-69,63
311,929	-2,05
312,136	112,64
312,344	2,05
312,552	40,96
312,759	-10,24
312,967	-6,14
313,174	51,2
313,382	67,58
313,589	75,77
313,797	65,54
314,005	2,05
314,212	40,96
314,42	-40,96
314,627	6,14
314,835	-40,96
315,042	40,96
315,25	-16,38
315,457	-12,29
315,665	-94,21
315,872	69,63
316,08	61,44
316,287	-2,05
316,495	210,94
316,702	-63,49
316,909	-34,82
317,117	16,38
317,324	40,96
317,532	69,63
317,739	67,58
317,946	10,24
318,154	-10,24
318,361	49,15
318,569	81,92
318,776	-45,06
318,983	-14,34
319,191	38,91
319,398	36,86
319,605	59,39
319,813	-28,67
320,02	-137,21
320,227	47,1
320,434	12,29
320,642	47,1
320,849	92,16
321,056	67,58
321,264	98,3
321,471	8,19
321,678	34,82
321,885	-10,24
322,092	22,53
322,3	-57,34
322,507	-12,29
322,714	108,54
322,921	16,38
323,128	-18,43
323,336	0
323,543	141,31
323,75	-36,86
323,957	18,43
324,164	-12,29
324,371	67,58
324,578	-43,01
324,786	34,82
324,993	63,49
325,2	24,58
325,407	-43,01
325,614	38,91
325,821	75,77
326,028	129,02
326,235	24,58
326,442	57,34
326,649	57,34
326,856	-14,34
327,063	8,19
327,27	-2,05
327,477	2,05
327,684	-34,82
327,891	-22,53
328,098	81,92
328,305	51,2
328,512	-34,82
328,719	26,62
328,926	96,25
329,133	38,91
329,34	157,69
329,546	-8,19
329,753	-2,05
329,96	-28,67
330,167	0
330,374	32,77
330,581	112,64
330,788	-67,58
330,995	16,38
331,201	26,62
331,408	2,05
331,615	67,58
331,822	24,58
332,029	-4,1
332,235	47,1
332,442	-22,53
332,649	-2,05
332,856	-18,43
333,062	43,01
333,269	18,43
333,476	55,3
333,683	2,05
333,889	26,62
334,096	10,24
334,303	-14,34
334,509	-40,96
334,716	112,64
334,923	49,15
335,129	26,62
335,336	38,91
335,543	-18,43
335,749	24,58
335,956	83,97
336,163	-63,49
336,369	-18,43
336,576	-18,43
336,782	-40,96
336,989	-55,3
337,196	2,05
337,402	-22,53
337,609	47,1
337,815	-38,91
338,022	81,92
338,228	51,2
338,435	131,07
338,641	26,62
338,848	18,43
339,054	75,77
339,261	-4,1
339,467	-6,14
339,674	43,01
339,88	67,58
340,087	-22,53
340,293	8,19
340,5	26,62
340,706	-16,38
340,912	0
341,119	-45,06
341,325	-14,34
341,532	-32,77
341,738	57,34
341,944	49,15
342,151	43,01
342,357	-8,19
342,563	67,58
342,77	-63,49
342,976	-16,38
343,182	63,49
343,389	-22,53
343,595	-55,3
343,801	-32,77
344,007	26,62
344,214	-73,73
344,42	-55,3
344,626	6,14
344,832	16,38
345,039	6,14
345,245	-6,14
345,451	-16,38
345,657	16,38
345,864	16,38
346,07	-20,48
346,276	45,06
346,482	83,97
346,688	30,72
346,894	-8,19
347,1	65,54
347,307	-14,34
347,513	71,68
347,719	-4,1
347,925	75,77
348,131	-63,49
348,337	65,54
348,543	-38,91
348,749	-49,15
348,955	-6,14
349,161	-38,91
349,367	16,38
349,573	79,87
349,779	-2,05
349,985	2,05
350,191	57,34
350,397	-2,05
350,603	2,05
350,809	-6,14
351,015	34,82
351,221	49,15
351,427	-2,05
351,633	43,01
351,839	59,39
352,045	43,01
352,251	79,87
352,457	51,2
352,663	36,86
352,869	-4,1
353,075	51,2
353,28	-14,34
353,486	30,72
353,692	-20,48
353,898	20,48
354,104	-2,05
354,31	108,54
354,515	-4,1
354,721	53,25
354,927	45,06
355,133	34,82
355,339	59,39
355,544	51,2
355,75	36,86
355,956	32,77
356,162	22,53
356,367	14,34
356,573	-10,24
356,779	-2,05
356,984	34,82
357,19	36,86
357,396	14,34
357,602	67,58
357,807	2,05
358,013	32,77
358,218	22,53
358,424	-16,38
358,63	-53,25
358,835	53,25
359,041	43,01
359,247	-32,77
359,452	-34,82
359,658	6,14
359,863	40,96
360,069	38,91
360,274	43,01
360,48	124,93
360,685	51,2
360,891	106,49
361,097	-18,43
361,302	59,39
361,508	63,49
361,713	24,58
361,918	108,54
362,124	-6,14
362,329	-32,77
362,535	8,19
362,74	-40,96
362,946	59,39
363,151	-43,01
363,357	-16,38
363,562	10,24
363,767	-26,62
363,973	49,15
364,178	-88,06
364,383	-53,25
364,589	-36,86
364,794	-55,3
365	2,05
365,205	36,86
365,41	-40,96
365,615	47,1
365,821	-22,53
366,026	96,25
366,231	28,67
366,437	67,58
366,642	-4,1
366,847	26,62
367,052	57,34
367,258	-43,01
367,463	63,49
367,668	-34,82
367,873	120,83
368,078	96,25
368,284	-83,97
368,489	-16,38
368,694	49,15
368,899	40,96
369,104	112,64
369,309	38,91
369,515	14,34
369,72	34,82
369,925	-14,34
370,13	104,45
370,335	30,72
370,54	-20,48
370,745	-14,34
370,95	2,05
371,155	86,01
371,36	49,15
371,565	71,68
371,77	79,87
371,975	-18,43
372,18	73,73
372,385	18,43
372,59	18,43
372,795	16,38
373	24,58
373,205	79,87
373,41	61,44
373,615	-10,24
373,82	-57,34
374,025	32,77
374,23	-10,24
374,435	59,39
374,64	32,77
374,845	59,39
375,05	83,97
375,254	63,49
375,459	22,53
375,664	49,15
375,869	55,3
376,074	20,48
376,279	43,01
376,483	-2,05
376,688	2,05
376,893	47,1
377,098	16,38
377,303	47,1
377,507	0
377,712	172,03
377,917	43,01
378,122	34,82
378,326	67,58
378,531	38,91
378,736	-14,34
378,94	-38,91
379,145	16,38
379,35	88,06
379,554	0
379,759	-6,14
379,964	14,34
380,168	32,77
380,373	88,06
380,578	124,93
380,782	71,68
380,987	38,91
381,191	40,96
381,396	67,58
381,601	79,87
381,805	34,82
382,01	116,73
382,214	71,68
382,419	98,3
382,623	51,2
382,828	77,82
383,032	0
383,237	-65,53
383,441	65,54
383,646	43,01
383,85	-55,3
384,055	10,24
384,259	36,86
384,464	2,05
384,668	-4,1
384,872	22,53
385,077	26,62
385,281	67,58
385,486	-63,49
385,69	26,62
385,894	47,1
386,099	51,2
386,303	6,14
386,507	124,93
386,712	65,54
386,916	8,19
387,12	55,3
387,325	83,97
387,529	59,39
387,733	12,29
387,937	51,2
388,142	40,96
388,346	34,82
388,55	55,3
388,754	49,15
388,959	20,48
389,163	92,16
389,367	59,39
389,571	61,44
389,775	96,25
389,98	65,54
390,184	24,58
390,388	57,34
390,592	75,77
390,796	75,77
391	57,34
391,204	51,2
391,409	47,1
391,613	14,34
391,817	-16,38
392,021	114,69
392,225	55,3
392,429	-67,58
392,633	51,2
392,837	8,19
393,041	43,01
393,245	122,88
393,449	67,58
393,653	-6,14
393,857	151,55
394,061	86,01
394,265	34,82
394,469	104,45
394,673	116,73
394,877	59,39
395,081	147,45
395,285	157,69
395,489	22,53
395,693	88,06
395,896	90,11
396,1	106,49
396,304	71,68
396,508	16,38
396,712	94,21
396,916	124,93
397,12	71,68
397,323	137,21
397,527	141,31
397,731	204,8
397,935	133,12
398,139	161,79
398,342	182,27
398,546	157,69
398,75	98,3
398,954	172,03
399,157	188,41
399,361	204,8
399,565	178,17
399,769	190,46
399,972	165,89
400,176	108,54
400,38	196,61
400,583	190,46
400,787	266,24
400,991	262,14
401,194	147,45
401,398	247,8
401,601	161,79
401,805	215,04
402,009	206,84
402,212	219,13
402,416	313,34
402,619	174,08
402,823	264,19
403,026	133,12
403,23	202,75
403,433	288,76
403,637	157,69
403,841	290,81
404,044	274,43
404,247	202,75
404,451	227,32
404,654	174,08
404,858	186,37
405,061	194,56
405,265	241,66
405,468	266,24
405,672	288,76
405,875	165,89
406,078	174,08
406,282	174,08
406,485	239,61
406,689	342,01
406,892	296,96
407,095	219,13
407,299	256
407,502	290,81
407,705	256
407,909	272,38
408,112	294,91
408,315	370,68
408,518	307,2
408,722	210,94
408,925	256
409,128	286,72
409,331	266,24
409,535	329,72
409,738	253,95
409,941	376,83
410,144	233,47
410,347	301,05
410,551	278,52
410,754	233,47
410,957	296,96
411,16	296,96
411,363	362,49
411,566	333,82
411,769	284,67
411,973	385,02
412,176	358,39
412,379	358,39
412,582	296,96
412,785	335,87
412,988	247,8
413,191	378,87
413,394	296,96
413,597	305,15
413,8	280,57
414,003	329,72
414,206	342,01
414,409	319,48
414,612	272,38
414,815	401,4
415,018	352,25
415,221	311,29
415,424	329,72
415,627	305,15
415,83	268,28
416,033	239,61
416,235	331,77
416,438	327,68
416,641	378,87
416,844	303,1
417,047	196,61
417,25	284,67
417,453	382,97
417,655	286,72
417,858	313,34
418,061	284,67
418,264	315,39
418,467	337,91
418,669	364,54
418,872	399,35
419,075	317,44
419,278	305,15
419,48	319,48
419,683	305,15
419,886	239,61
420,089	272,38
420,291	450,55
420,494	276,48
420,697	245,76
420,899	380,92
421,102	237,56
421,305	342,01
421,507	342,01
421,71	290,81
421,912	413,69
422,115	305,15
422,318	260,09
422,52	301,05
422,723	342,01
422,925	319,48
423,128	403,45
423,33	286,72
423,533	321,53
423,735	329,72
423,938	319,48
424,14	346,11
424,343	366,59
424,545	415,74
424,748	305,15
424,95	288,76
425,153	296,96
425,355	294,91
425,558	407,55
425,76	342,01
425,962	358,39
426,165	253,95
426,367	325,63
426,57	323,58
426,772	276,48
426,974	364,54
427,177	256
427,379	309,24
427,581	425,98
427,784	292,86
427,986	299
428,188	346,11
428,39	247,8
428,593	395,26
428,795	329,72
428,997	305,15
429,2	237,56
429,402	362,49
429,604	264,19
429,806	288,76
430,008	319,48
430,211	327,68
430,413	253,95
430,615	278,52
430,817	321,53
431,019	307,2
431,221	395,26
431,423	231,42
431,626	335,87
431,828	288,76
432,03	296,96
432,232	417,79
432,434	411,64
432,636	399,35
432,838	350,2
433,04	385,02
433,242	399,35
433,444	256
433,646	407,55
433,848	342,01
434,05	438,27
434,252	362,49
434,454	372,73
434,656	358,39
434,858	364,54
435,06	346,11
435,262	376,83
435,464	452,6
435,666	405,5
435,868	395,26
436,07	391,16
436,271	362,49
436,473	362,49
436,675	425,98
436,877	411,64
437,079	335,87
437,281	364,54
437,482	464,89
437,684	370,68
437,886	411,64
438,088	456,7
438,29	387,07
438,491	434,17
438,693	288,76
438,895	342,01
439,097	434,17
439,298	382,97
439,5	346,11
439,702	411,64
439,903	354,3
440,105	434,17
440,307	501,75
440,508	456,7
440,71	473,08
440,912	501,75
441,113	430,07
441,315	378,87
441,517	458,75
441,718	419,83
441,92	477,18
442,121	411,64
442,323	468,98
442,524	368,63
442,726	466,94
442,928	389,11
443,129	468,98
443,331	411,64
443,532	528,38
443,734	403,45
443,935	497,66
444,136	374,78
444,338	452,6
444,539	423,93
444,741	493,56
444,942	446,46
445,144	413,69
445,345	473,08
445,546	428,03
445,748	409,59
445,949	354,3
446,151	376,83
446,352	501,75
446,553	542,71
446,755	477,18
446,956	419,83
447,157	450,55
447,359	505,85
447,56	487,42
447,761	413,69
447,962	491,51
448,164	493,56
