Data from USB4F035431__9__14-15-57-706.txt Node

Date: Wed Feb 12 14:15:57 CET 2025
User: Versuch 234
Spectrometer: USB4F03543
Trigger mode: 4
Integration Time (sec): 1,000000E-1
Scans to average: 1
Electric dark correction enabled: true
Nonlinearity correction enabled: false
Boxcar width: 0
XAxis mode: Wavelengths
Number of Pixels in Spectrum: 3648
>>>>>Begin Spectral Data<<<<<
179,969	-195,75
180,181	-195,75
180,394	-195,75
180,606	-203,94
180,819	-238,76
181,031	50
181,243	146,26
181,456	19,29
181,668	7
181,88	-11,43
182,093	-46,25
182,305	-62,63
182,518	-70,83
182,73	33,62
182,942	11,09
183,155	-72,87
183,367	-3,24
183,579	47,96
183,791	62,29
184,004	-3,24
184,216	52,05
184,428	15,19
184,641	-72,87
184,853	37,72
185,065	-76,97
185,277	0,85
185,49	68,44
185,702	-72,87
185,914	-95,4
186,126	-52,39
186,338	74,58
186,551	-40,11
186,763	47,96
186,975	-56,49
187,187	64,34
187,399	-66,73
187,612	74,58
187,824	39,76
188,036	-31,91
188,248	39,76
188,46	-9,39
188,672	58,2
188,885	-62,63
189,097	-7,34
189,309	-17,58
189,521	-19,63
189,733	119,64
189,945	62,29
190,157	50
190,369	-33,96
190,581	-56,49
190,794	-31,91
191,006	-79,02
191,218	9,05
191,43	-9,39
191,642	-83,11
191,854	17,24
192,066	7
192,278	27,48
192,49	-101,55
192,702	-50,35
192,914	-11,43
193,126	-19,63
193,338	25,43
193,55	-68,78
193,762	39,76
193,974	-7,34
194,186	-60,59
194,398	-60,59
194,61	45,91
194,822	21,33
195,034	50
195,246	15,19
195,457	-58,54
195,669	103,25
195,881	-1,19
196,093	78,68
196,305	31,57
196,517	-124,07
196,729	66,39
196,941	33,62
197,153	56,15
197,365	90,96
197,576	11,09
197,788	-13,48
198	0,85
198,212	127,83
198,424	62,29
198,636	-109,74
198,847	-64,68
199,059	33,62
199,271	-33,96
199,483	17,24
199,695	21,33
199,906	82,77
200,118	-9,39
200,33	54,1
200,542	279,38
200,753	-31,91
200,965	-7,34
201,177	-3,24
201,389	17,24
201,6	-81,07
201,812	-21,67
202,024	9,05
202,235	-79,02
202,447	50
202,659	23,38
202,871	70,48
203,082	-25,77
203,294	-50,35
203,506	70,48
203,717	-7,34
203,929	56,15
204,141	-23,72
204,352	41,81
204,564	23,38
204,775	-89,26
204,987	70,48
205,199	74,58
205,41	-52,39
205,622	31,57
205,833	-13,48
206,045	9,05
206,257	-15,53
206,468	-79,02
206,68	-23,72
206,891	29,52
207,103	-68,78
207,314	-68,78
207,526	-13,48
207,737	-25,77
207,949	7
208,16	-9,39
208,372	19,29
208,583	-7,34
208,795	-25,77
209,006	-48,3
209,218	-9,39
209,429	-27,82
209,641	-25,77
209,852	29,52
210,064	9,05
210,275	17,24
210,487	56,15
210,698	64,34
210,909	-72,87
211,121	31,57
211,332	25,43
211,544	133,97
211,755	183,12
211,966	37,72
212,178	-58,54
212,389	25,43
212,6	-50,35
212,812	101,2
213,023	-7,34
213,234	43,86
213,446	66,39
213,657	-89,26
213,868	-23,72
214,08	9,05
214,291	-3,24
214,502	50
214,714	-7,34
214,925	-52,39
215,136	-7,34
215,347	95,06
215,559	35,67
215,77	-83,11
215,981	93,01
216,192	-52,39
216,404	0,85
216,615	52,05
216,826	19,29
217,037	-15,53
217,249	-27,82
217,46	70,48
217,671	-7,34
217,882	-7,34
218,093	-1,19
218,304	13,14
218,516	4,95
218,727	0,85
218,938	-72,87
219,149	56,15
219,36	-9,39
219,571	-9,39
219,782	-64,68
219,993	15,19
220,205	-64,68
220,416	50
220,627	41,81
220,838	25,43
221,049	113,49
221,26	66,39
221,471	45,91
221,682	23,38
221,893	37,72
222,104	29,52
222,315	-50,35
222,526	-89,26
222,737	-7,34
222,948	-25,77
223,159	-9,39
223,37	25,43
223,581	-60,59
223,792	41,81
224,003	-33,96
224,214	17,24
224,425	-7,34
224,636	-44,2
224,847	-7,34
225,058	-23,72
225,269	11,09
225,48	-27,82
225,691	-11,43
225,902	37,72
226,112	-42,15
226,323	-21,67
226,534	2,9
226,745	-83,11
226,956	-58,54
227,167	-36,01
227,378	54,1
227,589	-40,11
227,799	66,39
228,01	29,52
228,221	7
228,432	-25,77
228,643	-23,72
228,853	-9,39
229,064	-33,96
229,275	4,95
229,486	-46,25
229,697	-81,07
229,907	47,96
230,118	-13,48
230,329	-40,11
230,54	-15,53
230,75	25,43
230,961	95,06
231,172	-9,39
231,383	-89,26
231,593	-31,91
231,804	-64,68
232,015	93,01
232,225	-9,39
232,436	-60,59
232,647	-3,24
232,857	11,09
233,068	33,62
233,279	21,33
233,489	23,38
233,7	-19,63
233,91	13,14
234,121	-15,53
234,332	13,14
234,542	2,9
234,753	-27,82
234,964	39,76
235,174	-23,72
235,385	27,48
235,595	-9,39
235,806	45,91
236,016	-23,72
236,227	-50,35
236,437	-72,87
236,648	-54,44
236,858	-56,49
237,069	-27,82
237,279	-54,44
237,49	37,72
237,7	39,76
237,911	-31,91
238,121	-31,91
238,332	-15,53
238,542	-23,72
238,753	-5,29
238,963	-15,53
239,174	-3,24
239,384	-33,96
239,595	15,19
239,805	0,85
240,015	17,24
240,226	-58,54
240,436	88,92
240,647	45,91
240,857	25,43
241,067	-15,53
241,278	136,02
241,488	41,81
241,698	-19,63
241,909	43,86
242,119	-56,49
242,329	7
242,54	56,15
242,75	-42,15
242,96	9,05
243,171	-42,15
243,381	-3,24
243,591	-105,64
243,801	45,91
244,012	80,72
244,222	-13,48
244,432	-52,39
244,642	29,52
244,853	-23,72
245,063	23,38
245,273	4,95
245,483	13,14
245,694	-74,92
245,904	17,24
246,114	62,29
246,324	-54,44
246,534	-5,29
246,744	41,81
246,955	-105,64
247,165	-17,58
247,375	41,81
247,585	-66,73
247,795	-11,43
248,005	47,96
248,215	9,05
248,425	17,24
248,636	99,16
248,846	54,1
249,056	-50,35
249,266	-60,59
249,476	-11,43
249,686	9,05
249,896	-50,35
250,106	-9,39
250,316	35,67
250,526	58,2
250,736	-46,25
250,946	37,72
251,156	-7,34
251,366	-25,77
251,576	-23,72
251,786	97,11
251,996	-58,54
252,206	-70,83
252,416	31,57
252,626	-38,06
252,836	-95,4
253,046	-15,53
253,256	17,24
253,466	43,86
253,676	-40,11
253,885	58,2
254,095	15,19
254,305	21,33
254,515	99,16
254,725	33,62
254,935	-40,11
255,145	17,24
255,355	-13,48
255,564	37,72
255,774	-23,72
255,984	88,92
256,194	31,57
256,404	-33,96
256,614	37,72
256,823	41,81
257,033	9,05
257,243	-11,43
257,453	29,52
257,662	17,24
257,872	64,34
258,082	-15,53
258,292	-36,01
258,501	74,58
258,711	109,4
258,921	70,48
259,131	-56,49
259,34	37,72
259,55	-13,48
259,76	-56,49
259,969	-42,15
260,179	-68,78
260,389	-19,63
260,598	86,87
260,808	21,33
261,018	-23,72
261,227	74,58
261,437	-89,26
261,647	-19,63
261,856	-33,96
262,066	21,33
262,275	115,54
262,485	-29,87
262,694	17,24
262,904	25,43
263,114	54,1
263,323	-38,06
263,533	0,85
263,742	-48,3
263,952	-23,72
264,161	-15,53
264,371	0,85
264,58	-27,82
264,79	-50,35
264,999	-7,34
265,209	80,72
265,418	-42,15
265,628	17,24
265,837	-23,72
266,047	-19,63
266,256	39,76
266,466	-46,25
266,675	-15,53
266,884	66,39
267,094	-29,87
267,303	82,77
267,513	9,05
267,722	0,85
267,931	21,33
268,141	-15,53
268,35	-15,53
268,559	64,34
268,769	-64,68
268,978	-33,96
269,187	39,76
269,397	-23,72
269,606	-105,64
269,815	21,33
270,025	29,52
270,234	27,48
270,443	0,85
270,653	-58,54
270,862	50
271,071	-68,78
271,28	39,76
271,49	13,14
271,699	-56,49
271,908	23,38
272,117	4,95
272,327	-72,87
272,536	-23,72
272,745	-1,19
272,954	23,38
273,163	-21,67
273,372	25,43
273,582	4,95
273,791	-9,39
274	54,1
274,209	-46,25
274,418	39,76
274,627	7
274,836	-33,96
275,046	62,29
275,255	-15,53
275,464	17,24
275,673	-40,11
275,882	9,05
276,091	4,95
276,3	-11,43
276,509	7
276,718	41,81
276,927	15,19
277,136	-17,58
277,345	-33,96
277,554	33,62
277,763	-1,19
277,972	-15,53
278,181	39,76
278,39	50
278,599	-15,53
278,808	-44,2
279,017	41,81
279,226	-85,16
279,435	33,62
279,644	7
279,853	72,53
280,062	58,2
280,271	-60,59
280,48	0,85
280,688	-17,58
280,897	15,19
281,106	-46,25
281,315	-76,97
281,524	-31,91
281,733	-44,2
281,942	-56,49
282,151	-23,72
282,359	-91,31
282,568	-17,58
282,777	90,96
282,986	17,24
283,195	68,44
283,403	15,19
283,612	72,53
283,821	-91,31
284,03	15,19
284,238	-7,34
284,447	78,68
284,656	-27,82
284,865	25,43
285,073	-48,3
285,282	9,05
285,491	31,57
285,699	-60,59
285,908	15,19
286,117	-21,67
286,325	82,77
286,534	142,16
286,743	68,44
286,951	43,86
287,16	39,76
287,369	41,81
287,577	-15,53
287,786	41,81
287,995	52,05
288,203	37,72
288,412	-3,24
288,62	-9,39
288,829	-48,3
289,037	-31,91
289,246	-60,59
289,455	-54,44
289,663	33,62
289,872	47,96
290,08	-31,91
290,289	17,24
290,497	-74,92
290,706	17,24
290,914	-42,15
291,123	-21,67
291,331	7
291,54	105,3
291,748	88,92
291,957	103,25
292,165	-5,29
292,373	-89,26
292,582	-3,24
292,79	31,57
292,999	33,62
293,207	25,43
293,415	-7,34
293,624	-87,21
293,832	-1,19
294,041	0,85
294,249	9,05
294,457	-85,16
294,666	-9,39
294,874	-9,39
295,082	-23,72
295,291	39,76
295,499	-40,11
295,707	41,81
295,915	15,19
296,124	41,81
296,332	-13,48
296,54	-42,15
296,749	78,68
296,957	78,68
297,165	-15,53
297,373	-48,3
297,581	-31,91
297,79	13,14
297,998	-58,54
298,206	-42,15
298,414	-7,34
298,622	43,86
298,831	50
299,039	-40,11
299,247	39,76
299,455	25,43
299,663	72,53
299,871	62,29
300,08	-25,77
300,288	-5,29
300,496	-17,58
300,704	-48,3
300,912	-7,34
301,12	-23,72
301,328	21,33
301,536	-9,39
301,744	-13,48
301,952	-15,53
302,16	-89,26
302,368	-19,63
302,576	-50,35
302,784	9,05
302,992	-23,72
303,2	-5,29
303,408	25,43
303,616	-21,67
303,824	7
304,032	45,91
304,24	74,58
304,448	39,76
304,656	41,81
304,864	60,24
305,072	45,91
305,28	31,57
305,488	-9,39
305,696	-13,48
305,904	76,63
306,111	-70,83
306,319	-40,11
306,527	56,15
306,735	9,05
306,943	-9,39
307,151	-40,11
307,359	-40,11
307,566	54,1
307,774	54,1
307,982	45,91
308,19	-15,53
308,398	-15,53
308,605	-56,49
308,813	-15,53
309,021	-44,2
309,229	50
309,436	-31,91
309,644	37,72
309,852	7
310,06	80,72
310,267	25,43
310,475	35,67
310,683	0,85
310,89	11,09
311,098	64,34
311,306	25,43
311,513	13,14
311,721	7
311,929	54,1
312,136	2,9
312,344	-27,82
312,552	-1,19
312,759	-68,78
312,967	31,57
313,174	-27,82
313,382	-9,39
313,589	-9,39
313,797	-7,34
314,005	90,96
314,212	-25,77
314,42	-33,96
314,627	-19,63
314,835	-33,96
315,042	-44,2
315,25	-38,06
315,457	-79,02
315,665	-81,07
315,872	-13,48
316,08	52,05
316,287	-21,67
316,495	228,18
316,702	-72,87
316,909	-36,01
317,117	0,85
317,324	-25,77
317,532	56,15
317,739	27,48
317,946	66,39
318,154	58,2
318,361	41,81
318,569	-5,29
318,776	-68,78
318,983	-27,82
319,191	31,57
319,398	-17,58
319,605	-17,58
319,813	23,38
320,02	-154,79
320,227	64,34
320,434	107,35
320,642	-11,43
320,849	-40,11
321,056	-66,73
321,264	23,38
321,471	68,44
321,678	56,15
321,885	-19,63
322,092	52,05
322,3	4,95
322,507	-85,16
322,714	4,95
322,921	-48,3
323,128	-60,59
323,336	21,33
323,543	19,29
323,75	82,77
323,957	29,52
324,164	-31,91
324,371	58,2
324,578	-56,49
324,786	23,38
324,993	19,29
325,2	4,95
325,407	-68,78
325,614	37,72
325,821	47,96
326,028	82,77
326,235	66,39
326,442	-52,39
326,649	-38,06
326,856	-15,53
327,063	-87,21
327,27	-17,58
327,477	62,29
327,684	-9,39
327,891	-25,77
328,098	56,15
328,305	45,91
328,512	-9,39
328,719	33,62
328,926	64,34
329,133	0,85
329,34	156,5
329,546	4,95
329,753	-19,63
329,96	-19,63
330,167	80,72
330,374	-36,01
330,581	50
330,788	-33,96
330,995	29,52
331,201	-17,58
331,408	-1,19
331,615	-56,49
331,822	-46,25
332,029	50
332,235	29,52
332,442	-66,73
332,649	11,09
332,856	-31,91
333,062	-3,24
333,269	13,14
333,476	7
333,683	-19,63
333,889	2,9
334,096	-3,24
334,303	56,15
334,509	-15,53
334,716	33,62
334,923	37,72
335,129	47,96
335,336	-5,29
335,543	-15,53
335,749	4,95
335,956	107,35
336,163	-76,97
336,369	-1,19
336,576	45,91
336,782	21,33
336,989	-54,44
337,196	62,29
337,402	-42,15
337,609	-60,59
337,815	29,52
338,022	45,91
338,228	33,62
338,435	109,4
338,641	-1,19
338,848	74,58
339,054	41,81
339,261	7
339,467	-40,11
339,674	31,57
339,88	84,82
340,087	13,14
340,293	7
340,5	25,43
340,706	-5,29
340,912	0,85
341,119	0,85
341,325	-23,72
341,532	-52,39
341,738	68,44
341,944	23,38
342,151	11,09
342,357	-56,49
342,563	62,29
342,77	-23,72
342,976	-74,92
343,182	50
343,389	31,57
343,595	-33,96
343,801	17,24
344,007	60,24
344,214	-31,91
344,42	7
344,626	-27,82
344,832	-103,59
345,039	13,14
345,245	-19,63
345,451	-23,72
345,657	17,24
345,864	-27,82
346,07	25,43
346,276	11,09
346,482	84,82
346,688	45,91
346,894	-62,63
347,1	13,14
347,307	31,57
347,513	13,14
347,719	-40,11
347,925	127,83
348,131	-19,63
348,337	58,2
348,543	-31,91
348,749	-9,39
348,955	47,96
349,161	-40,11
349,367	21,33
349,573	64,34
349,779	74,58
349,985	-3,24
350,191	-31,91
350,397	25,43
350,603	80,72
350,809	74,58
351,015	76,63
351,221	78,68
351,427	41,81
351,633	29,52
351,839	56,15
352,045	37,72
352,251	80,72
352,457	37,72
352,663	-31,91
352,869	-15,53
353,075	62,29
353,28	17,24
353,486	47,96
353,692	33,62
353,898	0,85
354,104	-3,24
354,31	111,44
354,515	-9,39
354,721	45,91
354,927	25,43
355,133	-60,59
355,339	88,92
355,544	113,49
355,75	90,96
355,956	-3,24
356,162	97,11
356,367	-89,26
356,573	37,72
356,779	-31,91
356,984	35,67
357,19	72,53
357,396	-19,63
357,602	66,39
357,807	21,33
358,013	33,62
358,218	-31,91
358,424	-21,67
358,63	-15,53
358,835	-9,39
359,041	9,05
359,247	19,29
359,452	-40,11
359,658	15,19
359,863	13,14
360,069	123,73
360,274	58,2
360,48	152,4
360,685	-29,87
360,891	-1,19
361,097	21,33
361,302	-44,2
361,508	93,01
361,713	-7,34
361,918	74,58
362,124	27,48
362,329	66,39
362,535	2,9
362,74	23,38
362,946	-7,34
363,151	19,29
363,357	-31,91
363,562	2,9
363,767	-3,24
363,973	31,57
364,178	23,38
364,383	-42,15
364,589	56,15
364,794	7
365	-21,67
365,205	-1,19
365,41	45,91
365,615	115,54
365,821	-27,82
366,026	47,96
366,231	15,19
366,437	41,81
366,642	-25,77
366,847	45,91
367,052	78,68
367,258	-42,15
367,463	0,85
367,668	35,67
367,873	80,72
368,078	37,72
368,284	-81,07
368,489	56,15
368,694	47,96
368,899	82,77
369,104	13,14
369,309	58,2
369,515	-40,11
369,72	66,39
369,925	56,15
370,13	33,62
370,335	82,77
370,54	56,15
370,745	72,53
370,95	31,57
371,155	80,72
371,36	7
371,565	50
371,77	62,29
371,975	-17,58
372,18	64,34
372,385	131,92
372,59	-3,24
372,795	21,33
373	95,06
373,205	41,81
373,41	70,48
373,615	-83,11
373,82	13,14
374,025	15,19
374,23	-60,59
374,435	21,33
374,64	17,24
374,845	58,2
375,05	25,43
375,254	-15,53
375,459	2,9
375,664	7
375,869	17,24
376,074	37,72
376,279	-74,92
376,483	45,91
376,688	-13,48
376,893	107,35
377,098	25,43
377,303	2,9
377,507	9,05
377,712	72,53
377,917	88,92
378,122	35,67
378,326	9,05
378,531	-50,35
378,736	50
378,94	2,9
379,145	47,96
379,35	21,33
379,554	23,38
379,759	-7,34
379,964	43,86
380,168	-19,63
380,373	9,05
380,578	50
380,782	146,26
380,987	58,2
381,191	39,76
381,396	103,25
381,601	95,06
381,805	25,43
382,01	140,12
382,214	29,52
382,419	39,76
382,623	90,96
382,828	-17,58
383,032	-72,87
383,237	-66,73
383,441	-11,43
383,646	133,97
383,85	-23,72
384,055	88,92
384,259	72,53
384,464	21,33
384,668	-40,11
384,872	-52,39
385,077	-31,91
385,281	70,48
385,486	-27,82
385,69	113,49
385,894	115,54
386,099	39,76
386,303	45,91
386,507	50
386,712	99,16
386,916	13,14
387,12	56,15
387,325	125,78
387,529	50
387,733	90,96
387,937	54,1
388,142	21,33
388,346	-9,39
388,55	90,96
388,754	66,39
388,959	62,29
389,163	131,92
389,367	119,64
389,571	-27,82
389,775	90,96
389,98	60,24
390,184	66,39
390,388	66,39
390,592	113,49
390,796	66,39
391	154,45
391,204	45,91
391,409	111,44
391,613	58,2
391,817	62,29
392,021	99,16
392,225	50
392,429	13,14
392,633	37,72
392,837	-7,34
393,041	66,39
393,245	41,81
393,449	-33,96
393,653	80,72
393,857	111,44
394,061	129,88
394,265	131,92
394,469	107,35
394,673	125,78
394,877	131,92
395,081	162,64
395,285	156,5
395,489	84,82
395,693	121,68
395,896	66,39
396,1	131,92
396,304	105,3
396,508	17,24
396,712	144,21
396,916	140,12
397,12	129,88
397,323	142,16
397,527	181,07
397,731	146,26
397,935	164,69
398,139	189,27
398,342	260,95
398,546	162,64
398,75	138,07
398,954	172,88
399,157	211,79
399,361	273,23
399,565	140,12
399,769	230,23
399,972	193,36
400,176	258,9
400,38	260,95
400,583	246,61
400,787	240,47
400,991	289,62
401,194	238,42
401,398	262,99
401,601	244,56
401,805	291,66
402,009	193,36
402,212	281,43
402,416	398,16
402,619	181,07
402,823	258,9
403,026	209,75
403,23	252,75
403,433	303,95
403,637	242,51
403,841	287,57
404,044	262,99
404,247	213,84
404,451	260,95
404,654	283,47
404,858	277,33
405,061	295,76
405,265	262,99
405,468	303,95
405,672	316,24
405,875	410,45
406,078	236,37
406,282	195,41
406,485	324,43
406,689	295,76
406,892	332,62
407,095	303,95
407,299	267,09
407,502	320,34
407,705	357,2
407,909	283,47
408,112	342,86
408,315	369,49
408,518	377,68
408,722	336,72
408,925	285,52
409,128	385,87
409,331	400,21
409,535	441,17
409,738	385,87
409,941	410,45
410,144	357,2
410,347	430,93
410,551	367,44
410,754	410,45
410,957	359,25
411,16	432,97
411,363	451,41
411,566	416,59
411,769	441,17
411,973	402,26
412,176	459,6
412,379	490,32
412,582	502,61
412,785	490,32
412,988	430,93
413,191	424,78
413,394	449,36
413,597	394,06
413,8	383,82
414,003	521,04
414,206	496,46
414,409	480,08
414,612	498,51
414,815	521,04
415,018	510,8
415,221	510,8
415,424	508,75
415,627	555,85
415,83	590,67
416,033	498,51
416,235	576,33
416,438	584,52
416,641	648,01
416,844	512,85
417,047	543,57
417,25	502,61
417,453	619,34
417,655	535,37
417,858	580,43
418,061	557,9
418,264	582,48
418,467	631,63
418,669	672,59
418,872	705,35
419,075	605
419,278	701,26
419,48	656,2
419,683	656,2
419,886	672,59
420,089	688,97
420,291	766,79
420,494	795,47
420,697	727,88
420,899	951,11
421,102	746,31
421,305	807,75
421,507	842,57
421,71	797,51
421,912	926,54
422,115	932,68
422,318	852,81
422,52	949,06
422,723	1008,45
422,925	971,59
423,128	910,15
423,33	922,44
423,533	983,88
423,735	1008,45
423,938	1049,41
424,14	1114,95
424,343	1203,01
424,545	1182,53
424,748	1166,15
424,95	1155,91
425,153	1186,63
425,355	1334,08
425,558	1401,66
425,76	1366,85
425,962	1323,84
426,165	1299,27
426,367	1442,62
426,57	1549,12
426,772	1495,87
426,974	1592,13
427,177	1483,58
427,379	1579,84
427,581	1620,8
427,784	1721,15
427,986	1639,23
428,188	1784,63
428,39	1835,83
428,593	1825,59
428,795	2009,91
428,997	2046,77
429,2	2011,96
429,402	2155,32
429,604	2024,25
429,806	2106,17
430,008	2169,65
430,211	2227
430,413	2323,25
430,615	2308,91
430,817	2581,29
431,019	2579,25
431,221	2675,5
431,423	2423,6
431,626	2747,18
431,828	2759,47
432,03	2870,06
432,232	2847,53
432,434	3154,73
432,636	3183,4
432,838	3250,98
433,04	3228,45
433,242	3433,25
433,444	3457,82
433,646	3515,17
433,848	3506,98
434,05	3818,27
434,252	3592,99
434,454	3912,47
434,656	4064,02
434,858	4154,13
435,06	4274,96
435,262	4422,42
435,464	4557,58
435,666	4764,43
435,868	4719,37
436,07	4952,84
436,271	5186,31
436,473	5071,62
436,675	5278,47
436,877	5253,89
437,079	5169,93
437,281	5587,71
437,482	5767,93
437,684	6087,42
437,886	5907,2
438,088	5946,11
438,29	6134,52
438,491	6445,81
438,693	6503,15
438,895	6695,66
439,097	7457,51
439,298	7324,39
439,5	7377,64
439,702	7531,23
439,903	7336,68
440,105	7963,36
440,307	8522,45
440,508	8594,13
440,71	8846,03
440,912	8491,73
441,113	8745,68
441,315	9159,37
441,517	9509,57
441,718	9919,17
441,92	10068,67
442,121	10060,48
442,323	10468,02
442,524	10822,32
442,726	10771,12
442,928	11211,43
443,129	11725,47
443,331	11106,99
443,532	11834,02
443,734	12313,24
443,935	12769,94
444,136	12081,82
444,338	12915,34
444,539	12976,78
444,741	13582,98
444,942	13486,73
445,144	13984,38
445,345	14383,74
