Data from USB4F035431__11__14-17-21-297.txt Node

Date: Wed Feb 12 14:17:21 CET 2025
User: Versuch 234
Spectrometer: USB4F03543
Trigger mode: 4
Integration Time (sec): 1,000000E-1
Scans to average: 1
Electric dark correction enabled: true
Nonlinearity correction enabled: false
Boxcar width: 0
XAxis mode: Wavelengths
Number of Pixels in Spectrum: 3648
>>>>>Begin Spectral Data<<<<<
179,969	-161,79
180,181	-161,79
180,394	-161,79
180,606	-180,22
180,819	-253,95
181,031	0
181,243	40,96
181,456	-6,14
181,668	55,3
181,88	26,62
182,093	0
182,305	-55,3
182,518	-63,49
182,73	-6,14
182,942	-8,19
183,155	-22,53
183,367	38,91
183,579	-30,72
183,791	26,62
184,004	-90,11
184,216	-4,1
184,428	10,24
184,641	-40,96
184,853	-24,58
185,065	16,38
185,277	6,14
185,49	83,97
185,702	-34,82
185,914	-30,72
186,126	-16,38
186,338	-12,29
186,551	8,19
186,763	-6,14
186,975	-16,38
187,187	-24,58
187,399	-24,58
187,612	-22,53
187,824	-8,19
188,036	-14,34
188,248	16,38
188,46	-6,14
188,672	-22,53
188,885	-40,96
189,097	71,68
189,309	-63,49
189,521	-53,25
189,733	-49,15
189,945	-14,34
190,157	0
190,369	-47,1
190,581	-75,77
190,794	36,86
191,006	-22,53
191,218	30,72
191,43	67,58
191,642	-88,06
191,854	-57,34
192,066	6,14
192,278	18,43
192,49	-69,63
192,702	40,96
192,914	2,05
193,126	10,24
193,338	-6,14
193,55	-55,3
193,762	-16,38
193,974	-77,82
194,186	-71,68
194,398	-22,53
194,61	6,14
194,822	34,82
195,034	26,62
195,246	26,62
195,457	-38,91
195,669	24,58
195,881	16,38
196,093	12,29
196,305	16,38
196,517	-71,68
196,729	-55,3
196,941	-73,73
197,153	26,62
197,365	71,68
197,576	-110,59
197,788	10,24
198	10,24
198,212	6,14
198,424	34,82
198,636	-30,72
198,847	-86,01
199,059	-43,01
199,271	-47,1
199,483	-28,67
199,695	14,34
199,906	57,34
200,118	36,86
200,33	30,72
200,542	313,34
200,753	-96,25
200,965	-32,77
201,177	-8,19
201,389	-38,91
201,6	-26,62
201,812	-22,53
202,024	34,82
202,235	-6,14
202,447	65,53
202,659	0
202,871	-71,68
203,082	-59,39
203,294	-40,96
203,506	2,05
203,717	-2,05
203,929	65,53
204,141	-45,06
204,352	18,43
204,564	-18,43
204,775	-32,77
204,987	8,19
205,199	34,82
205,41	6,14
205,622	34,82
205,833	-92,16
206,045	16,38
206,257	-2,05
206,468	0
206,68	-14,34
206,891	34,82
207,103	-22,53
207,314	-131,07
207,526	18,43
207,737	-51,2
207,949	10,24
208,16	14,34
208,372	40,96
208,583	8,19
208,795	-55,3
209,006	-30,72
209,218	-14,34
209,429	-137,21
209,641	24,58
209,852	-63,49
210,064	10,24
210,275	-104,45
210,487	51,2
210,698	53,25
210,909	83,97
211,121	67,58
211,332	40,96
211,544	83,97
211,755	55,3
211,966	100,35
212,178	-14,34
212,389	34,82
212,6	-55,3
212,812	83,97
213,023	18,43
213,234	-40,96
213,446	16,38
213,657	-38,91
213,868	55,3
214,08	51,2
214,291	59,39
214,502	8,19
214,714	-59,39
214,925	-28,67
215,136	-22,53
215,347	16,38
215,559	16,38
215,77	-92,16
215,981	24,58
216,192	-38,91
216,404	45,06
216,615	22,53
216,826	18,43
217,037	-16,38
217,249	94,21
217,46	112,64
217,671	-12,29
217,882	-47,1
218,093	40,96
218,304	40,96
218,516	20,48
218,727	-32,77
218,938	-47,1
219,149	81,92
219,36	47,1
219,571	30,72
219,782	-47,1
219,993	-12,29
220,205	-24,58
220,416	-6,14
220,627	49,15
220,838	-14,34
221,049	77,82
221,26	53,25
221,471	-102,4
221,682	28,67
221,893	-14,34
222,104	-45,06
222,315	-98,3
222,526	-88,06
222,737	-6,14
222,948	-75,77
223,159	-18,43
223,37	-51,2
223,581	-43,01
223,792	-18,43
224,003	-51,2
224,214	-43,01
224,425	40,96
224,636	-90,11
224,847	0
225,058	6,14
225,269	0
225,48	-63,49
225,691	-4,1
225,902	-14,34
226,112	-36,86
226,323	-22,53
226,534	28,67
226,745	-49,15
226,956	-8,19
227,167	-116,73
227,378	-63,49
227,589	-26,62
227,799	0
228,01	43,01
228,221	-96,25
228,432	26,62
228,643	-18,43
228,853	-86,01
229,064	-61,44
229,275	-67,58
229,486	-24,58
229,697	-106,49
229,907	-61,44
230,118	26,62
230,329	-63,49
230,54	-16,38
230,75	32,77
230,961	-22,53
231,172	-75,77
231,383	-122,88
231,593	-110,59
231,804	0
232,015	-24,58
232,225	0
232,436	-63,49
232,647	-79,87
232,857	8,19
233,068	-34,82
233,279	38,91
233,489	-14,34
233,7	-38,91
233,91	51,2
234,121	-16,38
234,332	-57,34
234,542	-20,48
234,753	-47,1
234,964	38,91
235,174	-30,72
235,385	-8,19
235,595	-14,34
235,806	71,68
236,016	-65,54
236,227	-47,1
236,437	-67,58
236,648	-51,2
236,858	-24,58
237,069	-38,91
237,279	-2,05
237,49	-10,24
237,7	2,05
237,911	-30,72
238,121	-59,39
238,332	-22,53
238,542	12,29
238,753	10,24
238,963	-16,38
239,174	14,34
239,384	-40,96
239,595	8,19
239,805	-51,2
240,015	-65,54
240,226	-32,77
240,436	-106,49
240,647	47,1
240,857	-14,34
241,067	-6,14
241,278	100,35
241,488	-45,06
241,698	-6,14
241,909	-55,3
242,119	38,91
242,329	69,63
242,54	-36,86
242,75	-4,1
242,96	-38,91
243,171	18,43
243,381	34,82
243,591	38,91
243,801	14,34
244,012	45,06
244,222	-22,53
244,432	-114,69
244,642	-2,05
244,853	-79,87
245,063	18,43
245,273	22,53
245,483	32,77
245,694	-71,68
245,904	-2,05
246,114	20,48
246,324	-14,34
246,534	75,77
246,744	-61,44
246,955	-106,49
247,165	53,25
247,375	92,16
247,585	-22,53
247,795	-83,97
248,005	-36,86
248,215	47,1
248,425	38,91
248,636	116,73
248,846	-26,62
249,056	-12,29
249,266	-34,82
249,476	-43,01
249,686	26,62
249,896	-49,15
250,106	-83,97
250,316	-26,62
250,526	83,97
250,736	-86,01
250,946	59,39
251,156	20,48
251,366	-112,64
251,576	51,2
251,786	45,06
251,996	-34,82
252,206	-10,24
252,416	-2,05
252,626	-81,92
252,836	-47,1
253,046	-30,72
253,256	-26,62
253,466	20,48
253,676	10,24
253,885	-63,49
254,095	-38,91
254,305	51,2
254,515	-6,14
254,725	-20,48
254,935	-30,72
255,145	36,86
255,355	-30,72
255,564	10,24
255,774	-40,96
255,984	22,53
256,194	30,72
256,404	-32,77
256,614	-6,14
256,823	96,25
257,033	-24,58
257,243	79,87
257,453	-22,53
257,662	-40,96
257,872	-43,01
258,082	2,05
258,292	-114,69
258,501	63,49
258,711	96,25
258,921	73,73
259,131	-14,34
259,34	-47,1
259,55	96,25
259,76	40,96
259,969	-6,14
260,179	-141,31
260,389	-38,91
260,598	24,58
260,808	40,96
261,018	40,96
261,227	26,62
261,437	-38,91
261,647	47,1
261,856	-57,34
262,066	-8,19
262,275	83,97
262,485	16,38
262,694	40,96
262,904	26,62
263,114	59,39
263,323	43,01
263,533	-71,68
263,742	-30,72
263,952	-51,2
264,161	-116,73
264,371	-22,53
264,58	-38,91
264,79	-26,62
264,999	22,53
265,209	38,91
265,418	34,82
265,628	-20,48
265,837	59,39
266,047	2,05
266,256	63,49
266,466	-8,19
266,675	0
266,884	-2,05
267,094	-2,05
267,303	36,86
267,513	4,1
267,722	30,72
267,931	-6,14
268,141	36,86
268,35	18,43
268,559	18,43
268,769	30,72
268,978	-51,2
269,187	-16,38
269,397	-55,3
269,606	-133,12
269,815	18,43
270,025	12,29
270,234	16,38
270,443	-30,72
270,653	-6,14
270,862	-26,62
271,071	-14,34
271,28	34,82
271,49	51,2
271,699	-24,58
271,908	14,34
272,117	-63,49
272,327	30,72
272,536	-22,53
272,745	-8,19
272,954	-28,67
273,163	26,62
273,372	73,73
273,582	-63,49
273,791	14,34
274	-34,82
274,209	-51,2
274,418	65,53
274,627	100,35
274,836	-18,43
275,046	10,24
275,255	0
275,464	-10,24
275,673	2,05
275,882	36,86
276,091	-18,43
276,3	0
276,509	-16,38
276,718	-55,3
276,927	-43,01
277,136	-51,2
277,345	14,34
277,554	59,39
277,763	10,24
277,972	-22,53
278,181	94,21
278,39	-12,29
278,599	-40,96
278,808	2,05
279,017	-73,73
279,226	-40,96
279,435	-88,06
279,644	18,43
279,853	24,58
280,062	51,2
280,271	14,34
280,48	30,72
280,688	-30,72
280,897	8,19
281,106	-24,58
281,315	-43,01
281,524	63,49
281,733	-10,24
281,942	-2,05
282,151	-2,05
282,359	28,67
282,568	-18,43
282,777	-10,24
282,986	8,19
283,195	-30,72
283,403	10,24
283,612	18,43
283,821	-28,67
284,03	-57,34
284,238	-2,05
284,447	81,92
284,656	-20,48
284,865	2,05
285,073	12,29
285,282	-2,05
285,491	16,38
285,699	-65,54
285,908	-28,67
286,117	26,62
286,325	0
286,534	45,06
286,743	59,39
286,951	2,05
287,16	38,91
287,369	-22,53
287,577	22,53
287,786	-53,25
287,995	30,72
288,203	-43,01
288,412	-26,62
288,62	0
288,829	-38,91
289,037	-47,1
289,246	10,24
289,455	-67,58
289,663	-45,06
289,872	26,62
290,08	-30,72
290,289	67,58
290,497	-57,34
290,706	-26,62
290,914	-92,16
291,123	-71,68
291,331	-8,19
291,54	141,31
291,748	108,54
291,957	-10,24
292,165	18,43
292,373	-124,93
292,582	55,3
292,79	14,34
292,999	2,05
293,207	-16,38
293,415	-2,05
293,624	-73,73
293,832	59,39
294,041	43,01
294,249	-6,14
294,457	-49,15
294,666	22,53
294,874	-57,34
295,082	18,43
295,291	32,77
295,499	-30,72
295,707	-20,48
295,915	26,62
296,124	51,2
296,332	0
296,54	65,53
296,749	6,14
296,957	24,58
297,165	-55,3
297,373	-49,15
297,581	8,19
297,79	-4,1
297,998	10,24
298,206	-38,91
298,414	-22,53
298,622	22,53
298,831	14,34
299,039	-43,01
299,247	63,49
299,455	6,14
299,663	106,49
299,871	28,67
300,08	2,05
300,288	-8,19
300,496	-4,1
300,704	-30,72
300,912	-24,58
301,12	-12,29
301,328	67,58
301,536	-49,15
301,744	-90,11
301,952	24,58
302,16	-96,25
302,368	-26,62
302,576	-24,58
302,784	-28,67
302,992	-129,02
303,2	-24,58
303,408	-8,19
303,616	83,97
303,824	51,2
304,032	8,19
304,24	-18,43
304,448	-16,38
304,656	2,05
304,864	32,77
305,072	-24,58
305,28	26,62
305,488	20,48
305,696	20,48
305,904	-4,1
306,111	-8,19
306,319	-18,43
306,527	32,77
306,735	43,01
306,943	6,14
307,151	-26,62
307,359	-49,15
307,566	55,3
307,774	55,3
307,982	51,2
308,19	38,91
308,398	-67,58
308,605	-10,24
308,813	-10,24
309,021	-36,86
309,229	-65,54
309,436	-59,39
309,644	18,43
309,852	49,15
310,06	57,34
310,267	51,2
310,475	-81,92
310,683	-30,72
310,89	-59,39
311,098	59,39
311,306	-10,24
311,513	4,1
311,721	-49,15
311,929	2,05
312,136	8,19
312,344	-24,58
312,552	59,39
312,759	10,24
312,967	2,05
313,174	40,96
313,382	-51,2
313,589	-8,19
313,797	34,82
314,005	22,53
314,212	49,15
314,42	18,43
314,627	-22,53
314,835	-32,77
315,042	30,72
315,25	-73,73
315,457	-106,49
315,665	-98,3
315,872	38,91
316,08	38,91
316,287	-59,39
316,495	290,81
316,702	18,43
316,909	-92,16
317,117	34,82
317,324	6,14
317,532	110,59
317,739	-75,77
317,946	-49,15
318,154	0
318,361	-14,34
318,569	2,05
318,776	-63,49
318,983	-71,68
319,191	57,34
319,398	47,1
319,605	-8,19
319,813	-55,3
320,02	-38,91
320,227	38,91
320,434	73,73
320,642	30,72
320,849	57,34
321,056	-2,05
321,264	81,92
321,471	-22,53
321,678	81,92
321,885	-40,96
322,092	106,49
322,3	59,39
322,507	-90,11
322,714	0
322,921	-40,96
323,128	-36,86
323,336	-79,87
323,543	63,49
323,75	-22,53
323,957	-45,06
324,164	8,19
324,371	6,14
324,578	-90,11
324,786	38,91
324,993	24,58
325,2	0
325,407	-71,68
325,614	16,38
325,821	92,16
326,028	67,58
326,235	14,34
326,442	-67,58
326,649	34,82
326,856	75,77
327,063	-22,53
327,27	30,72
327,477	-30,72
327,684	-34,82
327,891	-104,45
328,098	38,91
328,305	-4,1
328,512	16,38
328,719	34,82
328,926	57,34
329,133	2,05
329,34	129,02
329,546	-30,72
329,753	8,19
329,96	-73,73
330,167	65,53
330,374	34,82
330,581	40,96
330,788	-122,88
330,995	-12,29
331,201	-10,24
331,408	-32,77
331,615	30,72
331,822	-116,73
332,029	2,05
332,235	-6,14
332,442	-30,72
332,649	-8,19
332,856	-55,3
333,062	18,43
333,269	-71,68
333,476	26,62
333,683	10,24
333,889	53,25
334,096	-38,91
334,303	-6,14
334,509	-71,68
334,716	-8,19
334,923	34,82
335,129	-90,11
335,336	6,14
335,543	-53,25
335,749	43,01
335,956	20,48
336,163	-34,82
336,369	-20,48
336,576	36,86
336,782	43,01
336,989	-45,06
337,196	20,48
337,402	-32,77
337,609	-32,77
337,815	-20,48
338,022	2,05
338,228	-43,01
338,435	135,17
338,641	65,53
338,848	96,25
339,054	81,92
339,261	10,24
339,467	-81,92
339,674	-4,1
339,88	24,58
340,087	-53,25
340,293	10,24
340,5	8,19
340,706	32,77
340,912	-16,38
341,119	8,19
341,325	-16,38
341,532	28,67
341,738	-6,14
341,944	14,34
342,151	16,38
342,357	24,58
342,563	-6,14
342,77	-36,86
342,976	-26,62
343,182	106,49
343,389	8,19
343,595	-24,58
343,801	-47,1
344,007	47,1
344,214	-14,34
344,42	-6,14
344,626	14,34
344,832	26,62
345,039	18,43
345,245	43,01
345,451	8,19
345,657	40,96
345,864	-73,73
346,07	-75,77
346,276	32,77
346,482	2,05
346,688	108,54
346,894	-55,3
347,1	34,82
347,307	-34,82
347,513	57,34
347,719	8,19
347,925	-38,91
348,131	-12,29
348,337	83,97
348,543	-34,82
348,749	51,2
348,955	8,19
349,161	-124,93
349,367	-45,06
349,573	32,77
349,779	-10,24
349,985	-8,19
350,191	-108,54
350,397	51,2
350,603	16,38
350,809	-6,14
351,015	32,77
351,221	-40,96
351,427	10,24
351,633	34,82
351,839	8,19
352,045	16,38
352,251	67,58
352,457	-6,14
352,663	-22,53
352,869	-45,06
353,075	73,73
353,28	-26,62
353,486	-22,53
353,692	18,43
353,898	-63,49
354,104	-38,91
354,31	45,06
354,515	2,05
354,721	-16,38
354,927	-32,77
355,133	81,92
355,339	8,19
355,544	38,91
355,75	14,34
355,956	-49,15
356,162	-51,2
356,367	24,58
356,573	45,06
356,779	-2,05
356,984	-28,67
357,19	49,15
357,396	53,25
357,602	71,68
357,807	-16,38
358,013	45,06
358,218	49,15
358,424	4,1
358,63	-2,05
358,835	-14,34
359,041	-88,06
359,247	-30,72
359,452	8,19
359,658	-38,91
359,863	14,34
360,069	-16,38
360,274	24,58
360,48	57,34
360,685	-6,14
360,891	43,01
361,097	-73,73
361,302	-2,05
361,508	67,58
361,713	-32,77
361,918	67,58
362,124	0
362,329	51,2
362,535	2,05
362,74	-38,91
362,946	-43,01
363,151	36,86
363,357	32,77
363,562	-43,01
363,767	-75,77
363,973	73,73
364,178	-49,15
364,383	-6,14
364,589	0
364,794	-26,62
365	16,38
365,205	2,05
365,41	-22,53
365,615	43,01
365,821	-2,05
366,026	61,44
366,231	0
366,437	100,35
366,642	-57,34
366,847	61,44
367,052	-14,34
367,258	-59,39
367,463	-28,67
367,668	18,43
367,873	92,16
368,078	65,53
368,284	-79,87
368,489	-51,2
368,694	18,43
368,899	20,48
369,104	18,43
369,309	30,72
369,515	-26,62
369,72	114,69
369,925	34,82
370,13	24,58
370,335	-14,34
370,54	-8,19
370,745	18,43
370,95	14,34
371,155	75,77
371,36	47,1
371,565	10,24
371,77	36,86
371,975	-38,91
372,18	94,21
372,385	112,64
372,59	22,53
372,795	83,97
373	102,4
373,205	49,15
373,41	92,16
373,615	26,62
373,82	-75,77
374,025	22,53
374,23	-67,58
374,435	129,02
374,64	-4,1
374,845	-6,14
375,05	-8,19
375,254	-36,86
375,459	-16,38
375,664	65,53
375,869	28,67
376,074	34,82
376,279	16,38
376,483	2,05
376,688	51,2
376,893	28,67
377,098	-59,39
377,303	75,77
377,507	47,1
377,712	122,88
377,917	67,58
378,122	153,6
378,326	73,73
378,531	34,82
378,736	-24,58
378,94	0
379,145	-18,43
379,35	57,34
379,554	16,38
379,759	-47,1
379,964	8,19
380,168	34,82
380,373	83,97
380,578	122,88
380,782	63,49
380,987	53,25
381,191	57,34
381,396	51,2
381,601	-20,48
381,805	92,16
382,01	67,58
382,214	51,2
382,419	53,25
382,623	49,15
382,828	43,01
383,032	16,38
383,237	-8,19
383,441	-98,3
383,646	51,2
383,85	-71,68
384,055	-24,58
384,259	26,62
384,464	30,72
384,668	-14,34
384,872	83,97
385,077	-14,34
385,281	47,1
385,486	18,43
385,69	92,16
385,894	98,3
386,099	30,72
386,303	2,05
386,507	108,54
386,712	92,16
386,916	-36,86
387,12	36,86
387,325	51,2
387,529	73,73
387,733	12,29
387,937	-18,43
388,142	69,63
388,346	45,06
388,55	79,87
388,754	133,12
388,959	-6,14
389,163	55,3
389,367	12,29
389,571	-18,43
389,775	151,55
389,98	67,58
390,184	47,1
390,388	47,1
390,592	73,73
390,796	32,77
391	133,12
391,204	51,2
391,409	75,77
391,613	90,11
391,817	81,92
392,021	40,96
392,225	45,06
392,429	16,38
392,633	112,64
392,837	83,97
393,041	153,6
393,245	49,15
393,449	65,53
393,653	38,91
393,857	86,01
394,061	155,65
394,265	122,88
394,469	81,92
394,673	172,03
394,877	112,64
395,081	149,5
395,285	143,36
395,489	83,97
395,693	133,12
395,896	100,35
396,1	129,02
396,304	108,54
396,508	38,91
396,712	43,01
396,916	75,77
397,12	153,6
397,323	149,5
397,527	190,46
397,731	210,94
397,935	186,37
398,139	157,69
398,342	196,61
398,546	184,32
398,75	145,41
398,954	180,22
399,157	272,38
399,361	288,76
399,565	172,03
399,769	337,91
399,972	270,33
400,176	198,65
400,38	180,22
400,583	176,13
400,787	272,38
400,991	225,28
401,194	184,32
401,398	258,04
401,601	219,13
401,805	266,24
402,009	239,61
402,212	303,1
402,416	382,97
402,619	204,8
402,823	303,1
403,026	243,71
403,23	231,42
403,433	370,68
403,637	276,48
403,841	243,71
404,044	290,81
404,247	286,72
404,451	327,67
404,654	346,11
404,858	325,63
405,061	358,39
405,265	350,2
405,468	387,07
405,672	217,08
405,875	407,55
406,078	325,63
406,282	311,29
406,485	276,48
406,689	401,4
406,892	417,79
407,095	362,49
407,299	358,39
407,502	301,05
407,705	315,39
407,909	428,03
408,112	409,59
408,315	407,55
408,518	473,08
408,722	372,73
408,925	417,79
409,128	421,88
409,331	415,74
409,535	505,85
409,738	417,79
409,941	518,14
410,144	411,64
410,347	575,48
410,551	489,46
410,754	411,64
410,957	559,1
411,16	493,56
411,363	579,58
411,566	526,33
411,769	542,71
411,973	559,1
412,176	634,87
412,379	593,91
412,582	667,64
412,785	550,9
412,988	530,42
413,191	632,82
413,394	573,43
413,597	552,95
413,8	485,37
414,003	727,03
414,206	655,35
414,409	626,68
414,612	714,74
414,815	663,54
415,018	690,17
415,221	706,55
415,424	737,27
415,627	811
415,83	692,21
416,033	731,12
416,235	774,13
416,438	833,52
416,641	837,62
416,844	790,52
417,047	796,66
417,25	706,55
417,453	872,43
417,655	720,88
417,858	931,83
418,061	901,11
418,264	897,01
418,467	915,44
418,669	917,49
418,872	940,02
419,075	989,17
419,278	1026,03
419,48	1042,42
419,683	1107,95
419,886	1073,14
420,089	1177,58
420,291	1177,58
420,494	1138,67
420,697	1249,26
420,899	1253,36
421,102	1116,14
421,305	1198,06
421,507	1138,67
421,71	1335,28
421,912	1398,76
422,115	1290,22
422,318	1337,32
422,52	1384,43
422,723	1308,65
422,925	1480,68
423,128	1499,11
423,33	1386,47
423,533	1492,97
423,735	1578,98
423,938	1554,41
424,14	1681,38
424,343	1654,76
424,545	1681,38
424,748	1712,1
424,95	1787,88
425,153	1742,82
425,355	1763,3
425,558	1918,95
425,76	1955,81
425,962	1873,89
426,165	1902,56
426,367	1968,1
426,57	2121,7
426,772	2062,3
426,974	2115,55
427,177	1992,67
427,379	2056,16
427,581	2220
427,784	2226,14
427,986	2076,64
428,188	2252,77
428,39	2473,95
428,593	2447,32
428,795	2455,51
428,997	2592,73
429,2	2512,86
429,402	2555,86
429,604	2605,02
429,806	2529,24
430,008	2764,76
430,211	2815,96
430,413	2758,61
430,615	2793,43
430,817	2971,6
431,019	2961,36
431,221	3028,95
431,423	3071,95
431,626	3071,95
431,828	3237,84
432,03	3182,54
432,232	3192,78
432,434	3393,48
432,636	3364,81
432,838	3334,09
433,04	3411,92
433,242	3569,61
433,444	3493,83
433,646	3585,99
433,848	3655,62
434,05	3786,69
434,252	3579,85
434,454	3612,62
434,656	3864,52
434,858	3930,05
435,06	4077,51
435,262	4145,09
435,464	4229,06
435,666	4380,61
435,868	4130,75
436,07	4464,57
436,271	4462,52
436,473	4376,51
436,675	4499,39
436,877	4548,54
437,079	4196,29
437,281	4536,25
437,482	4642,75
437,684	4761,53
437,886	4743,1
438,088	4777,91
438,29	4573,11
438,491	4804,53
438,693	4730,81
438,895	5048,24
439,097	5412,78
439,298	5103,54
439,5	5066,67
439,702	5261,23
439,903	5081,01
440,105	5343,15
440,307	5660,59
440,508	5621,67
440,71	5808,04
440,912	5711,78
441,113	5453,74
441,315	5685,16
441,517	5881,77
441,718	6119,33
441,92	5990,31
442,121	5879,72
442,323	5971,88
442,524	5910,44
442,726	6287,26
442,928	6184,87
443,129	6473,63
443,331	6068,13
443,532	6639,51
443,734	6623,13
443,935	6922,13
444,136	6346,66
444,338	6829,98
444,539	6768,54
444,741	6872,98
